Temperature (K)	Pressure (MPa)	Density (l, mol/l)	Volume (l, l/mol)	Internal Energy (l, kJ/mol)	Enthalpy (l, kJ/mol)	Entropy (l, J/mol*K)	Cv (l, J/mol*K)	Cp (l, J/mol*K)	Sound Spd. (l, m/s)	Joule-Thomson (l, K/MPa)	Viscosity (l, uPa*s)	Therm. Cond. (l, W/m*K)	Surf. Tension (l, N/m)	Density (v, mol/l)	Volume (v, l/mol)	Internal Energy (v, kJ/mol)	Enthalpy (v, kJ/mol)	Entropy (v, J/mol*K)	Cv (v, J/mol*K)	Cp (v, J/mol*K)	Sound Spd. (v, m/s)	Joule-Thomson (v, K/MPa)	Viscosity (v, uPa*s)	Therm. Cond. (v, W/m*K)
273.16	0.00061165	55.497	0.018019	-1.5169e-12	1.1021e-05	-5.3169e-12	75.978	76.023	1402.3	-0.24142	1791.4	0.55560	0.075646	0.00026947	3711.0	42.785	45.055	164.94	25.553	33.947	409.00	592.65	8.9458	0.016761
273.78	0.00063992	55.499	0.018018	0.047368	0.047379	0.17321	75.953	75.985	1405.4	-0.24081	1753.1	0.55718	0.075559	0.00028128	3555.1	42.800	45.075	164.64	25.562	33.958	409.45	580.97	8.9636	0.016801
274.41	0.00066933	55.501	0.018018	0.094712	0.094724	0.34594	75.928	75.948	1408.5	-0.24021	1716.2	0.55875	0.075472	0.00029355	3406.6	42.816	45.096	164.34	25.571	33.969	409.90	569.55	8.9815	0.016841
275.03	0.00069994	55.502	0.018017	0.14203	0.14205	0.51820	75.902	75.914	1411.5	-0.23962	1680.5	0.56029	0.075384	0.00030628	3265.0	42.831	45.116	164.04	25.581	33.981	410.35	558.36	8.9995	0.016881
275.65	0.00073177	55.503	0.018017	0.18934	0.18935	0.68999	75.875	75.881	1414.5	-0.23904	1645.9	0.56182	0.075296	0.00031950	3129.9	42.847	45.137	163.75	25.590	33.992	410.80	547.41	9.0175	0.016921
276.28	0.00076489	55.504	0.018017	0.23662	0.23663	0.86132	75.847	75.849	1417.4	-0.23846	1612.5	0.56332	0.075208	0.00033321	3001.1	42.862	45.158	163.46	25.599	34.003	411.25	536.69	9.0356	0.016961
276.90	0.00079932	55.504	0.018017	0.28388	0.28389	1.0322	75.819	75.819	1420.3	-0.23789	1580.2	0.56480	0.075120	0.00034743	2878.3	42.877	45.178	163.16	25.609	34.015	411.70	526.20	9.0537	0.017002
277.52	0.00083511	55.504	0.018017	0.33112	0.33114	1.2026	75.790	75.790	1423.2	-0.23733	1548.8	0.56627	0.075031	0.00036218	2761.1	42.893	45.199	162.87	25.618	34.026	412.15	515.93	9.0719	0.017042
278.15	0.00087232	55.504	0.018017	0.37835	0.37836	1.3726	75.760	75.763	1426.0	-0.23677	1518.5	0.56771	0.074942	0.00037747	2649.2	42.908	45.219	162.59	25.628	34.038	412.60	505.88	9.0901	0.017083
278.77	0.00091098	55.503	0.018017	0.42556	0.42557	1.5421	75.730	75.737	1428.8	-0.23622	1489.1	0.56914	0.074853	0.00039333	2542.4	42.924	45.240	162.30	25.638	34.050	413.04	496.05	9.1084	0.017124
279.39	0.00095115	55.502	0.018017	0.47275	0.47277	1.7112	75.699	75.712	1431.5	-0.23567	1460.6	0.57055	0.074764	0.00040977	2440.4	42.939	45.260	162.02	25.647	34.062	413.49	486.43	9.1267	0.017164
280.02	0.00099288	55.501	0.018018	0.51993	0.51995	1.8799	75.668	75.688	1434.2	-0.23513	1433.0	0.57195	0.074675	0.00042680	2343.0	42.955	45.281	161.73	25.657	34.073	413.94	477.02	9.1451	0.017205
280.64	0.0010362	55.499	0.018018	0.56709	0.56711	2.0482	75.636	75.665	1436.8	-0.23460	1406.2	0.57332	0.074585	0.00044445	2250.0	42.970	45.301	161.45	25.667	34.085	414.38	467.82	9.1636	0.017246
281.26	0.0010812	55.497	0.018019	0.61424	0.61426	2.2160	75.604	75.643	1439.4	-0.23407	1380.2	0.57468	0.074495	0.00046273	2161.1	42.985	45.322	161.17	25.676	34.097	414.82	458.82	9.1821	0.017287
281.89	0.0011279	55.495	0.018020	0.66138	0.66140	2.3834	75.570	75.623	1442.0	-0.23355	1355.0	0.57603	0.074405	0.00048166	2076.1	43.001	45.343	160.89	25.686	34.109	415.27	450.01	9.2006	0.017328
282.51	0.0011764	55.492	0.018021	0.70850	0.70852	2.5504	75.537	75.603	1444.5	-0.23304	1330.5	0.57736	0.074314	0.00050127	1994.9	43.016	45.363	160.61	25.696	34.121	415.71	441.39	9.2192	0.017370
283.13	0.0012267	55.489	0.018021	0.75561	0.75564	2.7169	75.503	75.584	1447.0	-0.23253	1306.7	0.57867	0.074224	0.00052156	1917.3	43.032	45.384	160.34	25.706	34.133	416.15	432.97	9.2379	0.017411
283.75	0.0012789	55.486	0.018022	0.80271	0.80274	2.8831	75.468	75.566	1449.5	-0.23202	1283.6	0.57997	0.074133	0.00054257	1843.1	43.047	45.404	160.07	25.716	34.145	416.60	424.73	9.2566	0.017452
284.38	0.0013330	55.483	0.018024	0.84980	0.84983	3.0489	75.433	75.549	1451.9	-0.23152	1261.1	0.58126	0.074042	0.00056431	1772.1	43.062	45.425	159.79	25.726	34.158	417.04	416.67	9.2753	0.017494
285.00	0.0013892	55.479	0.018025	0.89688	0.89691	3.2143	75.397	75.533	1454.3	-0.23102	1239.2	0.58253	0.073951	0.00058681	1704.1	43.078	45.445	159.52	25.736	34.170	417.48	408.80	9.2941	0.017535
285.62	0.0014474	55.475	0.018026	0.94395	0.94398	3.3792	75.361	75.518	1456.6	-0.23053	1218.0	0.58378	0.073859	0.00061008	1639.1	43.093	45.466	159.25	25.746	34.182	417.92	401.09	9.3130	0.017577
286.25	0.0015077	55.471	0.018028	0.99101	0.99104	3.5438	75.325	75.503	1458.9	-0.23004	1197.3	0.58503	0.073767	0.00063415	1576.9	43.109	45.486	158.99	25.756	34.194	418.36	393.56	9.3319	0.017619
286.87	0.0015703	55.466	0.018029	1.0381	1.0381	3.7080	75.288	75.489	1461.2	-0.22956	1177.2	0.58626	0.073675	0.00065904	1517.4	43.124	45.507	158.72	25.766	34.207	418.79	386.20	9.3508	0.017661
287.49	0.0016351	55.461	0.018031	1.0851	1.0851	3.8718	75.250	75.476	1463.5	-0.22908	1157.7	0.58747	0.073583	0.00068477	1460.3	43.139	45.527	158.46	25.776	34.219	419.23	379.00	9.3698	0.017703
288.12	0.0017022	55.456	0.018032	1.1321	1.1322	4.0352	75.212	75.463	1465.7	-0.22861	1138.6	0.58868	0.073491	0.00071137	1405.7	43.155	45.548	158.19	25.786	34.232	419.67	371.96	9.3888	0.017745
288.74	0.0017718	55.451	0.018034	1.1792	1.1792	4.1983	75.174	75.451	1467.8	-0.22814	1120.1	0.58987	0.073398	0.00073886	1353.4	43.170	45.568	157.93	25.796	34.245	420.11	365.08	9.4079	0.017787
289.36	0.0018438	55.445	0.018036	1.2262	1.2262	4.3610	75.135	75.440	1470.0	-0.22767	1102.0	0.59105	0.073305	0.00076727	1303.3	43.185	45.588	157.67	25.806	34.257	420.54	358.36	9.4270	0.017829
289.99	0.0019184	55.440	0.018038	1.2732	1.2732	4.5232	75.096	75.429	1472.0	-0.22721	1084.4	0.59221	0.073212	0.00079663	1255.3	43.201	45.609	157.41	25.816	34.270	420.98	351.78	9.4462	0.017871
290.61	0.0019957	55.434	0.018040	1.3202	1.3202	4.6852	75.056	75.419	1474.1	-0.22675	1067.2	0.59337	0.073119	0.00082695	1209.3	43.216	45.629	157.15	25.826	34.283	421.41	345.35	9.4654	0.017914
291.23	0.0020756	55.427	0.018042	1.3672	1.3672	4.8467	75.016	75.409	1476.1	-0.22630	1050.5	0.59451	0.073025	0.00085826	1165.1	43.231	45.650	156.90	25.836	34.295	421.85	339.07	9.4846	0.017956
291.86	0.0021584	55.421	0.018044	1.4142	1.4142	5.0079	74.975	75.400	1478.1	-0.22585	1034.2	0.59564	0.072931	0.00089060	1122.8	43.247	45.670	156.64	25.846	34.308	422.28	332.93	9.5039	0.017999
292.48	0.0022440	55.414	0.018046	1.4612	1.4612	5.1687	74.934	75.391	1480.1	-0.22540	1018.3	0.59676	0.072837	0.00092398	1082.3	43.262	45.691	156.39	25.857	34.321	422.71	326.93	9.5232	0.018041
293.10	0.0023326	55.407	0.018048	1.5082	1.5082	5.3292	74.893	75.383	1482.0	-0.22495	1002.8	0.59787	0.072743	0.00095845	1043.4	43.277	45.711	156.14	25.867	34.334	423.15	321.06	9.5426	0.018084
293.73	0.0024242	55.400	0.018051	1.5551	1.5552	5.4893	74.852	75.375	1483.9	-0.22451	987.64	0.59897	0.072649	0.00099401	1006.0	43.293	45.731	155.89	25.877	34.347	423.58	315.33	9.5620	0.018127
294.35	0.0025189	55.392	0.018053	1.6021	1.6022	5.6491	74.810	75.368	1485.8	-0.22407	972.87	0.60006	0.072554	0.0010307	970.20	43.308	45.752	155.64	25.888	34.361	424.01	309.72	9.5815	0.018170
294.97	0.0026169	55.385	0.018056	1.6491	1.6491	5.8085	74.767	75.361	1487.6	-0.22364	958.45	0.60113	0.072459	0.0010686	935.82	43.323	45.772	155.39	25.898	34.374	424.44	304.25	9.6010	0.018213
295.60	0.0027182	55.377	0.018058	1.6961	1.6961	5.9675	74.724	75.355	1489.5	-0.22321	944.38	0.60220	0.072364	0.0011076	902.82	43.339	45.793	155.15	25.908	34.387	424.87	298.89	9.6205	0.018256
296.22	0.0028229	55.369	0.018061	1.7430	1.7431	6.1262	74.681	75.349	1491.2	-0.22278	930.63	0.60325	0.072269	0.0011479	871.14	43.354	45.813	154.90	25.919	34.400	425.30	293.66	9.6401	0.018299
296.84	0.0029311	55.360	0.018063	1.7900	1.7900	6.2846	74.638	75.343	1493.0	-0.22235	917.21	0.60430	0.072173	0.0011895	840.71	43.369	45.833	154.66	25.929	34.414	425.73	288.54	9.6597	0.018342
297.47	0.0030429	55.352	0.018066	1.8369	1.8370	6.4426	74.594	75.338	1494.7	-0.22193	904.09	0.60534	0.072078	0.0012323	811.49	43.384	45.854	154.41	25.939	34.427	426.16	283.54	9.6793	0.018386
298.09	0.0031584	55.343	0.018069	1.8839	1.8839	6.6003	74.550	75.333	1496.4	-0.22151	891.27	0.60636	0.071982	0.0012765	783.42	43.400	45.874	154.17	25.950	34.441	426.58	278.66	9.6990	0.018429
298.71	0.0032778	55.334	0.018072	1.9308	1.9309	6.7576	74.505	75.329	1498.0	-0.22109	878.75	0.60738	0.071885	0.0013220	756.45	43.415	45.894	153.93	25.960	34.454	427.01	273.88	9.7187	0.018473
299.34	0.0034010	55.325	0.018075	1.9778	1.9778	6.9146	74.460	75.324	1499.7	-0.22068	866.50	0.60838	0.071789	0.0013689	730.53	43.430	45.915	153.70	25.971	34.468	427.44	269.21	9.7385	0.018516
299.96	0.0035282	55.316	0.018078	2.0247	2.0248	7.0712	74.415	75.321	1501.3	-0.22027	854.53	0.60938	0.071692	0.0014172	705.62	43.445	45.935	153.46	25.982	34.482	427.86	264.65	9.7583	0.018560
300.58	0.0036596	55.306	0.018081	2.0717	2.0717	7.2276	74.369	75.317	1502.8	-0.21986	842.83	0.61037	0.071596	0.0014670	681.67	43.461	45.955	153.22	25.992	34.496	428.29	260.19	9.7781	0.018604
301.21	0.0037952	55.296	0.018084	2.1186	2.1187	7.3836	74.324	75.314	1504.4	-0.21945	831.38	0.61134	0.071498	0.0015183	658.65	43.476	45.976	152.99	26.003	34.509	428.71	255.83	9.7980	0.018648
301.83	0.0039352	55.286	0.018088	2.1655	2.1656	7.5392	74.277	75.311	1505.9	-0.21904	820.18	0.61231	0.071401	0.0015711	636.51	43.491	45.996	152.76	26.014	34.523	429.13	251.57	9.8179	0.018692
302.45	0.0040797	55.276	0.018091	2.2125	2.2125	7.6946	74.231	75.308	1507.4	-0.21864	809.22	0.61327	0.071304	0.0016255	615.21	43.506	46.016	152.52	26.024	34.538	429.56	247.40	9.8378	0.018736
303.07	0.0042287	55.266	0.018094	2.2594	2.2595	7.8496	74.184	75.306	1508.8	-0.21824	798.50	0.61422	0.071206	0.0016814	594.73	43.521	46.036	152.29	26.035	34.552	429.98	243.33	9.8577	0.018780
303.70	0.0043824	55.255	0.018098	2.3063	2.3064	8.0043	74.137	75.303	1510.2	-0.21784	788.01	0.61517	0.071108	0.0017391	575.02	43.537	46.057	152.06	26.046	34.566	430.40	239.35	9.8777	0.018825
304.32	0.0045410	55.245	0.018101	2.3533	2.3533	8.1587	74.090	75.302	1511.6	-0.21745	777.73	0.61610	0.071010	0.0017984	556.05	43.552	46.077	151.83	26.057	34.580	430.82	235.46	9.8978	0.018869
304.94	0.0047046	55.234	0.018105	2.4002	2.4003	8.3127	74.042	75.300	1513.0	-0.21705	767.67	0.61703	0.070911	0.0018594	537.79	43.567	46.097	151.61	26.068	34.595	431.24	231.65	9.9178	0.018914
305.57	0.0048732	55.223	0.018109	2.4471	2.4472	8.4664	73.994	75.298	1514.4	-0.21666	757.83	0.61794	0.070813	0.0019223	520.22	43.582	46.117	151.38	26.079	34.609	431.66	227.93	9.9379	0.018958
306.19	0.0050470	55.211	0.018112	2.4940	2.4941	8.6199	73.946	75.297	1515.7	-0.21627	748.18	0.61885	0.070714	0.0019869	503.30	43.597	46.138	151.16	26.090	34.624	432.08	224.29	9.9581	0.019003
306.81	0.0052262	55.200	0.018116	2.5410	2.5411	8.7730	73.897	75.296	1517.0	-0.21588	738.73	0.61975	0.070615	0.0020534	487.01	43.613	46.158	150.93	26.101	34.639	432.50	220.73	9.9782	0.019048
307.44	0.0054109	55.188	0.018120	2.5879	2.5880	8.9258	73.848	75.296	1518.3	-0.21550	729.47	0.62064	0.070516	0.0021217	471.32	43.628	46.178	150.71	26.112	34.654	432.92	217.26	9.9984	0.019093
308.06	0.0056013	55.177	0.018124	2.6348	2.6349	9.0782	73.799	75.295	1519.5	-0.21511	720.40	0.62152	0.070416	0.0021920	456.20	43.643	46.198	150.49	26.123	34.669	433.33	213.85	10.019	0.019138
308.68	0.0057974	55.165	0.018128	2.6817	2.6819	9.2304	73.750	75.295	1520.7	-0.21473	711.52	0.62240	0.070317	0.0022643	441.64	43.658	46.218	150.27	26.134	34.684	433.75	210.53	10.039	0.019183
309.31	0.0059994	55.153	0.018132	2.7287	2.7288	9.3823	73.700	75.294	1521.9	-0.21435	702.80	0.62326	0.070217	0.0023386	427.60	43.673	46.238	150.05	26.146	34.699	434.17	207.28	10.059	0.019228
309.93	0.0062075	55.140	0.018136	2.7756	2.7757	9.5338	73.650	75.294	1523.1	-0.21397	694.26	0.62412	0.070117	0.0024150	414.08	43.688	46.259	149.83	26.157	34.714	434.58	204.09	10.079	0.019273
310.55	0.0064218	55.128	0.018140	2.8225	2.8226	9.6851	73.600	75.295	1524.2	-0.21359	685.89	0.62497	0.070016	0.0024935	401.04	43.703	46.279	149.62	26.168	34.730	434.99	200.98	10.100	0.019319
311.18	0.0066425	55.115	0.018144	2.8694	2.8696	9.8360	73.550	75.295	1525.4	-0.21322	677.68	0.62582	0.069916	0.0025742	388.48	43.718	46.299	149.40	26.180	34.745	435.41	197.94	10.120	0.019364
311.80	0.0068697	55.102	0.018148	2.9164	2.9165	9.9867	73.499	75.296	1526.4	-0.21284	669.63	0.62665	0.069815	0.0026570	376.36	43.734	46.319	149.19	26.191	34.761	435.82	194.96	10.141	0.019410
312.42	0.0071036	55.089	0.018152	2.9633	2.9634	10.137	73.448	75.296	1527.5	-0.21247	661.73	0.62748	0.069714	0.0027422	364.67	43.749	46.339	148.97	26.203	34.776	436.23	192.05	10.161	0.019456
313.05	0.0073443	55.076	0.018157	3.0102	3.0104	10.287	73.397	75.297	1528.6	-0.21210	653.99	0.62830	0.069613	0.0028296	353.40	43.764	46.359	148.76	26.215	34.792	436.64	189.20	10.181	0.019502
313.67	0.0075920	55.063	0.018161	3.0572	3.0573	10.437	73.345	75.298	1529.6	-0.21173	646.39	0.62911	0.069512	0.0029194	342.53	43.779	46.379	148.55	26.226	34.808	437.05	186.41	10.202	0.019548
314.29	0.0078470	55.050	0.018165	3.1041	3.1042	10.586	73.294	75.300	1530.6	-0.21136	638.93	0.62992	0.069410	0.0030117	332.04	43.794	46.399	148.34	26.238	34.825	437.46	183.68	10.222	0.019594
314.92	0.0081092	55.036	0.018170	3.1510	3.1512	10.735	73.242	75.301	1531.6	-0.21099	631.62	0.63072	0.069308	0.0031064	321.92	43.809	46.419	148.13	26.250	34.841	437.87	181.01	10.243	0.019640
315.54	0.0083790	55.022	0.018174	3.1979	3.1981	10.884	73.190	75.302	1532.5	-0.21062	624.43	0.63151	0.069206	0.0032036	312.15	43.824	46.439	147.92	26.262	34.857	438.28	178.40	10.264	0.019686
316.16	0.0086565	55.008	0.018179	3.2449	3.2450	11.033	73.137	75.304	1533.5	-0.21026	617.39	0.63229	0.069104	0.0033034	302.72	43.839	46.459	147.72	26.274	34.874	438.69	175.84	10.284	0.019733
316.79	0.0089419	54.994	0.018184	3.2918	3.2920	11.181	73.085	75.306	1534.4	-0.20990	610.47	0.63306	0.069002	0.0034058	293.62	43.854	46.479	147.51	26.286	34.891	439.10	173.34	10.305	0.019779
317.41	0.0092354	54.980	0.018188	3.3387	3.3389	11.329	73.032	75.308	1535.3	-0.20953	603.67	0.63383	0.068899	0.0035109	284.83	43.869	46.499	147.31	26.299	34.908	439.50	170.89	10.325	0.019826
318.03	0.0095371	54.966	0.018193	3.3857	3.3858	11.477	72.979	75.310	1536.1	-0.20917	597.00	0.63459	0.068796	0.0036187	276.34	43.884	46.519	147.10	26.311	34.925	439.91	168.50	10.346	0.019873
318.66	0.0098472	54.951	0.018198	3.4326	3.4328	11.624	72.926	75.312	1537.0	-0.20881	590.45	0.63535	0.068693	0.0037294	268.14	43.899	46.539	146.90	26.323	34.942	440.31	166.15	10.367	0.019919
319.28	0.010166	54.937	0.018203	3.4795	3.4797	11.772	72.873	75.314	1537.8	-0.20845	584.01	0.63609	0.068590	0.0038429	260.22	43.914	46.559	146.70	26.336	34.959	440.72	163.85	10.387	0.019966
319.90	0.010494	54.922	0.018208	3.5265	3.5267	11.918	72.819	75.317	1538.6	-0.20809	577.69	0.63683	0.068487	0.0039592	252.57	43.929	46.579	146.50	26.348	34.977	441.12	161.60	10.408	0.020014
320.53	0.010830	54.907	0.018213	3.5734	3.5736	12.065	72.765	75.319	1539.4	-0.20774	571.48	0.63757	0.068383	0.0040786	245.18	43.944	46.599	146.30	26.361	34.995	441.52	159.40	10.429	0.020061
321.15	0.011176	54.892	0.018218	3.6204	3.6206	12.211	72.711	75.322	1540.1	-0.20738	565.38	0.63829	0.068279	0.0042010	238.04	43.959	46.619	146.10	26.374	35.013	441.92	157.24	10.450	0.020108
321.77	0.011532	54.876	0.018223	3.6673	3.6675	12.357	72.657	75.325	1540.9	-0.20703	559.39	0.63901	0.068175	0.0043265	231.13	43.974	46.639	145.90	26.387	35.031	442.33	155.13	10.470	0.020155
322.39	0.011896	54.861	0.018228	3.7142	3.7145	12.503	72.603	75.328	1541.6	-0.20667	553.50	0.63972	0.068071	0.0044552	224.46	43.988	46.659	145.71	26.400	35.049	442.73	153.06	10.491	0.020203
323.02	0.012271	54.845	0.018233	3.7612	3.7614	12.649	72.548	75.331	1542.3	-0.20632	547.71	0.64043	0.067966	0.0045870	218.01	44.003	46.679	145.51	26.413	35.067	443.12	151.03	10.512	0.020251
323.64	0.012656	54.830	0.018238	3.8081	3.8084	12.794	72.494	75.334	1542.9	-0.20597	542.02	0.64112	0.067861	0.0047222	211.77	44.018	46.698	145.32	26.426	35.086	443.52	149.05	10.533	0.020298
324.26	0.013052	54.814	0.018244	3.8551	3.8553	12.939	72.439	75.338	1543.6	-0.20561	536.43	0.64182	0.067756	0.0048607	205.73	44.033	46.718	145.12	26.440	35.105	443.92	147.10	10.554	0.020346
324.89	0.013457	54.798	0.018249	3.9020	3.9023	13.083	72.384	75.341	1544.2	-0.20526	530.93	0.64250	0.067651	0.0050026	199.90	44.048	46.738	144.93	26.453	35.124	444.32	145.19	10.575	0.020394
325.51	0.013874	54.782	0.018254	3.9490	3.9492	13.228	72.329	75.344	1544.9	-0.20491	525.52	0.64318	0.067546	0.0051480	194.25	44.063	46.758	144.74	26.467	35.143	444.71	143.33	10.596	0.020443
326.13	0.014301	54.766	0.018260	3.9960	3.9962	13.372	72.273	75.348	1545.4	-0.20456	520.21	0.64385	0.067440	0.0052969	188.79	44.078	46.778	144.55	26.480	35.162	445.11	141.50	10.617	0.020491
326.76	0.014740	54.749	0.018265	4.0429	4.0432	13.516	72.218	75.352	1546.0	-0.20421	514.98	0.64451	0.067335	0.0054495	183.50	44.092	46.797	144.36	26.494	35.182	445.50	139.70	10.637	0.020539
327.38	0.015190	54.733	0.018271	4.0899	4.0901	13.659	72.162	75.356	1546.6	-0.20387	509.84	0.64517	0.067229	0.0056057	178.39	44.107	46.817	144.17	26.508	35.202	445.90	137.94	10.658	0.020588
328.00	0.015652	54.716	0.018276	4.1368	4.1371	13.803	72.106	75.360	1547.1	-0.20352	504.78	0.64582	0.067123	0.0057657	173.44	44.122	46.837	143.98	26.522	35.222	446.29	136.22	10.679	0.020636
328.63	0.016126	54.699	0.018282	4.1838	4.1841	13.946	72.050	75.364	1547.6	-0.20317	499.80	0.64647	0.067016	0.0059295	168.65	44.137	46.856	143.80	26.536	35.242	446.68	134.53	10.700	0.020685
329.25	0.016612	54.682	0.018287	4.2308	4.2311	14.088	71.994	75.368	1548.1	-0.20282	494.91	0.64711	0.066910	0.0060972	164.01	44.152	46.876	143.61	26.551	35.262	447.07	132.87	10.722	0.020734
329.87	0.017111	54.665	0.018293	4.2777	4.2781	14.231	71.938	75.372	1548.6	-0.20248	490.09	0.64774	0.066803	0.0062689	159.52	44.166	46.896	143.43	26.565	35.283	447.46	131.25	10.743	0.020783
330.50	0.017622	54.648	0.018299	4.3247	4.3250	14.373	71.882	75.377	1549.1	-0.20213	485.36	0.64837	0.066696	0.0064446	155.17	44.181	46.915	143.24	26.580	35.304	447.85	129.66	10.764	0.020832
331.12	0.018146	54.631	0.018305	4.3717	4.3720	14.515	71.825	75.381	1549.5	-0.20179	480.70	0.64898	0.066589	0.0066245	150.96	44.196	46.935	143.06	26.595	35.325	448.24	128.09	10.785	0.020882
331.74	0.018683	54.614	0.018310	4.4187	4.4190	14.657	71.769	75.386	1549.9	-0.20144	476.11	0.64960	0.066481	0.0068085	146.88	44.211	46.955	142.88	26.609	35.346	448.63	126.56	10.806	0.020931
332.37	0.019234	54.596	0.018316	4.4657	4.4660	14.798	71.712	75.390	1550.3	-0.20110	471.59	0.65020	0.066374	0.0069968	142.92	44.225	46.974	142.69	26.624	35.368	449.02	125.06	10.827	0.020981
332.99	0.019799	54.578	0.018322	4.5126	4.5130	14.940	71.655	75.395	1550.7	-0.20075	467.15	0.65080	0.066266	0.0071895	139.09	44.240	46.994	142.51	26.640	35.390	449.40	123.58	10.848	0.021030
333.61	0.020378	54.560	0.018328	4.5596	4.5600	15.081	71.598	75.400	1551.1	-0.20041	462.77	0.65140	0.066158	0.0073865	135.38	44.255	47.013	142.33	26.655	35.412	449.79	122.14	10.869	0.021080
334.24	0.020971	54.543	0.018334	4.6066	4.6070	15.221	71.541	75.405	1551.4	-0.20007	458.46	0.65199	0.066050	0.0075881	131.78	44.269	47.033	142.16	26.670	35.434	450.17	120.72	10.890	0.021130
334.86	0.021579	54.524	0.018340	4.6536	4.6540	15.362	71.484	75.410	1551.8	-0.19972	454.22	0.65257	0.065941	0.0077943	128.30	44.284	47.052	141.98	26.686	35.457	450.56	119.32	10.912	0.021180
335.48	0.022201	54.506	0.018347	4.7006	4.7010	15.502	71.427	75.415	1552.1	-0.19938	450.05	0.65314	0.065833	0.0080052	124.92	44.299	47.072	141.80	26.702	35.480	450.94	117.96	10.933	0.021230
336.11	0.022839	54.488	0.018353	4.7476	4.7480	15.642	71.369	75.421	1552.4	-0.19904	445.94	0.65371	0.065724	0.0082208	121.64	44.313	47.091	141.62	26.718	35.503	451.32	116.62	10.954	0.021281
336.73	0.023492	54.470	0.018359	4.7946	4.7950	15.782	71.312	75.426	1552.7	-0.19869	441.89	0.65427	0.065615	0.0084412	118.47	44.328	47.111	141.45	26.734	35.526	451.70	115.30	10.975	0.021331
337.35	0.024162	54.451	0.018365	4.8416	4.8421	15.921	71.254	75.432	1552.9	-0.19835	437.90	0.65483	0.065506	0.0086666	115.39	44.342	47.130	141.27	26.750	35.550	452.08	114.01	10.996	0.021382
337.98	0.024847	54.432	0.018371	4.8886	4.8891	16.060	71.196	75.437	1553.2	-0.19801	433.97	0.65538	0.065397	0.0088969	112.40	44.357	47.150	141.10	26.766	35.573	452.46	112.74	11.018	0.021433
338.60	0.025549	54.413	0.018378	4.9356	4.9361	16.199	71.139	75.443	1553.4	-0.19767	430.10	0.65593	0.065287	0.0091324	109.50	44.371	47.169	140.93	26.783	35.598	452.84	111.49	11.039	0.021484
339.22	0.026267	54.395	0.018384	4.9827	4.9831	16.338	71.081	75.449	1553.6	-0.19733	426.29	0.65647	0.065177	0.0093730	106.69	44.386	47.188	140.76	26.800	35.622	453.21	110.27	11.060	0.021535
339.85	0.027003	54.375	0.018391	5.0297	5.0302	16.477	71.023	75.455	1553.8	-0.19698	422.54	0.65700	0.065067	0.0096189	103.96	44.400	47.208	140.58	26.817	35.647	453.59	109.06	11.082	0.021586
340.47	0.027755	54.356	0.018397	5.0767	5.0772	16.615	70.965	75.461	1554.0	-0.19664	418.84	0.65752	0.064957	0.0098702	101.32	44.415	47.227	140.41	26.834	35.672	453.97	107.88	11.103	0.021637
341.09	0.028526	54.337	0.018404	5.1237	5.1243	16.753	70.907	75.467	1554.2	-0.19630	415.19	0.65804	0.064847	0.010127	98.747	44.429	47.246	140.24	26.851	35.697	454.34	106.72	11.124	0.021689
341.71	0.029315	54.318	0.018410	5.1708	5.1713	16.891	70.849	75.473	1554.3	-0.19596	411.60	0.65856	0.064736	0.010389	96.254	44.444	47.266	140.08	26.868	35.722	454.71	105.59	11.146	0.021741
342.34	0.030122	54.298	0.018417	5.2178	5.2184	17.028	70.790	75.479	1554.5	-0.19562	408.06	0.65907	0.064625	0.010657	93.835	44.458	47.285	139.91	26.886	35.748	455.09	104.47	11.167	0.021792
342.96	0.030947	54.278	0.018424	5.2648	5.2654	17.165	70.732	75.486	1554.6	-0.19527	404.58	0.65957	0.064514	0.010931	91.486	44.473	47.304	139.74	26.904	35.774	455.46	103.37	11.188	0.021844
343.58	0.031792	54.259	0.018430	5.3119	5.3125	17.303	70.674	75.493	1554.7	-0.19493	401.14	0.66007	0.064403	0.011210	89.206	44.487	47.323	139.57	26.922	35.801	455.83	102.29	11.210	0.021897
344.21	0.032656	54.239	0.018437	5.3589	5.3595	17.439	70.615	75.499	1554.8	-0.19459	397.75	0.66056	0.064292	0.011495	86.991	44.502	47.342	139.41	26.940	35.827	456.20	101.23	11.231	0.021949
344.83	0.033540	54.219	0.018444	5.4060	5.4066	17.576	70.557	75.506	1554.8	-0.19425	394.41	0.66104	0.064180	0.011787	84.841	44.516	47.362	139.24	26.958	35.854	456.57	100.18	11.252	0.022001
345.45	0.034444	54.199	0.018451	5.4530	5.4537	17.712	70.498	75.513	1554.9	-0.19390	391.12	0.66152	0.064069	0.012084	82.752	44.530	47.381	139.08	26.977	35.882	456.93	99.156	11.274	0.022054
346.08	0.035369	54.179	0.018457	5.5001	5.5007	17.848	70.440	75.520	1554.9	-0.19356	387.87	0.66200	0.063957	0.012388	80.724	44.545	47.400	138.92	26.995	35.909	457.30	98.148	11.295	0.022107
346.70	0.036314	54.158	0.018464	5.5472	5.5478	17.984	70.381	75.527	1555.0	-0.19322	384.67	0.66246	0.063845	0.012698	78.753	44.559	47.419	138.75	27.014	35.937	457.67	97.156	11.317	0.022160
347.32	0.037281	54.138	0.018471	5.5942	5.5949	18.120	70.322	75.534	1555.0	-0.19288	381.51	0.66292	0.063732	0.013014	76.838	44.573	47.438	138.59	27.033	35.966	458.03	96.182	11.338	0.022213
347.95	0.038269	54.117	0.018478	5.6413	5.6420	18.255	70.264	75.542	1555.0	-0.19253	378.40	0.66338	0.063620	0.013337	74.978	44.588	47.457	138.43	27.053	35.994	458.39	95.224	11.360	0.022266
348.57	0.039279	54.097	0.018485	5.6884	5.6891	18.390	70.205	75.549	1554.9	-0.19219	375.33	0.66383	0.063507	0.013667	73.170	44.602	47.476	138.27	27.072	36.023	458.76	94.281	11.381	0.022319
349.19	0.040312	54.076	0.018493	5.7355	5.7362	18.525	70.146	75.557	1554.9	-0.19185	372.31	0.66428	0.063394	0.014003	71.413	44.616	47.495	138.11	27.092	36.052	459.12	93.354	11.402	0.022373
349.82	0.041367	54.055	0.018500	5.7825	5.7833	18.660	70.087	75.565	1554.8	-0.19150	369.32	0.66471	0.063281	0.014346	69.705	44.630	47.514	137.95	27.112	36.082	459.48	92.443	11.424	0.022427
350.44	0.042446	54.034	0.018507	5.8296	5.8304	18.795	70.028	75.572	1554.8	-0.19116	366.38	0.66515	0.063168	0.014696	68.045	44.644	47.533	137.79	27.132	36.112	459.84	91.546	11.445	0.022480
351.06	0.043548	54.013	0.018514	5.8767	5.8775	18.929	69.969	75.580	1554.7	-0.19081	363.48	0.66557	0.063054	0.015053	66.431	44.659	47.552	137.64	27.152	36.142	460.20	90.664	11.467	0.022535
351.69	0.044674	53.992	0.018521	5.9238	5.9247	19.063	69.911	75.588	1554.6	-0.19047	360.61	0.66600	0.062941	0.015417	64.862	44.673	47.570	137.48	27.173	36.173	460.55	89.796	11.488	0.022589
352.31	0.045824	53.970	0.018529	5.9709	5.9718	19.197	69.852	75.597	1554.5	-0.19012	357.79	0.66641	0.062827	0.015789	63.336	44.687	47.589	137.32	27.194	36.204	460.91	88.942	11.510	0.022643
352.93	0.046999	53.949	0.018536	6.0181	6.0189	19.330	69.793	75.605	1554.4	-0.18977	355.00	0.66682	0.062713	0.016168	61.852	44.701	47.608	137.17	27.215	36.235	461.27	88.102	11.531	0.022698
353.56	0.048200	53.927	0.018544	6.0652	6.0661	19.464	69.734	75.613	1554.2	-0.18943	352.25	0.66723	0.062598	0.016554	60.409	44.715	47.627	137.01	27.236	36.267	461.62	87.275	11.553	0.022753
354.18	0.049426	53.906	0.018551	6.1123	6.1132	19.597	69.675	75.622	1554.1	-0.18908	349.53	0.66763	0.062484	0.016948	59.005	44.729	47.646	136.86	27.257	36.299	461.97	86.461	11.574	0.022807
354.80	0.050678	53.884	0.018558	6.1594	6.1604	19.730	69.616	75.630	1553.9	-0.18873	346.86	0.66802	0.062369	0.017349	57.639	44.743	47.664	136.71	27.279	36.332	462.33	85.660	11.596	0.022863
355.43	0.051956	53.862	0.018566	6.2066	6.2075	19.863	69.557	75.639	1553.7	-0.18839	344.21	0.66841	0.062255	0.017759	56.310	44.757	47.683	136.56	27.301	36.364	462.68	84.871	11.618	0.022918
356.05	0.053262	53.840	0.018574	6.2537	6.2547	19.995	69.498	75.648	1553.5	-0.18804	341.61	0.66879	0.062140	0.018176	55.017	44.771	47.702	136.40	27.323	36.398	463.03	84.094	11.639	0.022973
356.67	0.054595	53.818	0.018581	6.3008	6.3018	20.127	69.439	75.657	1553.3	-0.18769	339.03	0.66917	0.062024	0.018602	53.759	44.785	47.720	136.25	27.345	36.431	463.38	83.330	11.661	0.023029
357.30	0.055956	53.796	0.018589	6.3480	6.3490	20.259	69.380	75.666	1553.1	-0.18734	336.49	0.66954	0.061909	0.019035	52.534	44.799	47.739	136.10	27.368	36.465	463.72	82.577	11.682	0.023085
357.92	0.057344	53.773	0.018597	6.3951	6.3962	20.391	69.321	75.676	1552.9	-0.18699	333.99	0.66991	0.061793	0.019477	51.342	44.813	47.757	135.95	27.391	36.500	464.07	81.836	11.704	0.023141
358.54	0.058762	53.751	0.018604	6.4423	6.4434	20.523	69.262	75.685	1552.6	-0.18664	331.51	0.67027	0.061678	0.019927	50.182	44.827	47.776	135.80	27.414	36.534	464.42	81.106	11.725	0.023197
359.17	0.060209	53.728	0.018612	6.4895	6.4906	20.654	69.203	75.695	1552.4	-0.18629	329.07	0.67063	0.061562	0.020386	49.053	44.841	47.795	135.65	27.437	36.569	464.76	80.387	11.747	0.023253
359.79	0.061686	53.706	0.018620	6.5366	6.5378	20.786	69.144	75.704	1552.1	-0.18593	326.66	0.67098	0.061446	0.020854	47.953	44.855	47.813	135.51	27.461	36.605	465.10	79.678	11.769	0.023310
360.41	0.063192	53.683	0.018628	6.5838	6.5850	20.917	69.085	75.714	1551.8	-0.18558	324.28	0.67132	0.061329	0.021330	46.882	44.869	47.831	135.36	27.484	36.641	465.45	78.981	11.790	0.023367
361.03	0.064730	53.660	0.018636	6.6310	6.6322	21.047	69.026	75.724	1551.5	-0.18523	321.93	0.67166	0.061213	0.021815	45.840	44.883	47.850	135.21	27.509	36.677	465.79	78.293	11.812	0.023424
361.66	0.066298	53.637	0.018644	6.6782	6.6794	21.178	68.967	75.734	1551.2	-0.18487	319.60	0.67199	0.061096	0.022309	44.824	44.897	47.868	135.07	27.533	36.714	466.13	77.616	11.833	0.023481
362.28	0.067898	53.614	0.018652	6.7254	6.7266	21.308	68.908	75.745	1550.9	-0.18452	317.31	0.67232	0.060979	0.022813	43.835	44.910	47.887	134.92	27.557	36.751	466.47	76.948	11.855	0.023538
362.90	0.069530	53.591	0.018660	6.7726	6.7739	21.439	68.849	75.755	1550.5	-0.18416	315.05	0.67265	0.060862	0.023326	42.872	44.924	47.905	134.78	27.582	36.789	466.81	76.291	11.877	0.023596
363.53	0.071195	53.568	0.018668	6.8198	6.8211	21.569	68.790	75.766	1550.2	-0.18381	312.82	0.67296	0.060745	0.023848	41.933	44.938	47.923	134.63	27.607	36.827	467.14	75.642	11.898	0.023653
364.15	0.072893	53.545	0.018676	6.8670	6.8684	21.698	68.731	75.776	1549.8	-0.18345	310.61	0.67328	0.060628	0.024379	41.018	44.952	47.941	134.49	27.633	36.866	467.48	75.003	11.920	0.023711
364.77	0.074624	53.521	0.018684	6.9142	6.9156	21.828	68.672	75.787	1549.4	-0.18309	308.43	0.67358	0.060510	0.024921	40.127	44.965	47.960	134.35	27.658	36.904	467.81	74.374	11.941	0.023769
365.40	0.076390	53.498	0.018692	6.9614	6.9629	21.957	68.613	75.798	1549.0	-0.18273	306.28	0.67389	0.060392	0.025472	39.259	44.979	47.978	134.20	27.684	36.944	468.15	73.753	11.963	0.023828
366.02	0.078190	53.474	0.018701	7.0087	7.0101	22.086	68.554	75.809	1548.6	-0.18237	304.15	0.67418	0.060274	0.026033	38.413	44.993	47.996	134.06	27.710	36.984	468.48	73.140	11.985	0.023886
366.64	0.080025	53.450	0.018709	7.0559	7.0574	22.215	68.496	75.820	1548.2	-0.18201	302.05	0.67447	0.060156	0.026604	37.588	45.006	48.014	133.92	27.736	37.024	468.81	72.537	12.006	0.023945
367.27	0.081896	53.426	0.018717	7.1032	7.1047	22.344	68.437	75.832	1547.8	-0.18165	299.98	0.67476	0.060038	0.027185	36.784	45.020	48.032	133.78	27.763	37.065	469.14	71.942	12.028	0.024004
367.89	0.083803	53.402	0.018726	7.1504	7.1520	22.473	68.378	75.843	1547.4	-0.18129	297.93	0.67504	0.059919	0.027777	36.001	45.033	48.050	133.64	27.790	37.106	469.47	71.355	12.050	0.024063
368.51	0.085747	53.378	0.018734	7.1977	7.1993	22.601	68.320	75.855	1546.9	-0.18092	295.90	0.67532	0.059800	0.028379	35.237	45.047	48.068	133.50	27.817	37.148	469.80	70.776	12.071	0.024122
369.14	0.087729	53.354	0.018743	7.2449	7.2466	22.729	68.261	75.867	1546.4	-0.18056	293.90	0.67559	0.059682	0.028992	34.492	45.060	48.086	133.36	27.845	37.190	470.12	70.205	12.093	0.024182
369.76	0.089748	53.330	0.018751	7.2922	7.2939	22.857	68.202	75.879	1546.0	-0.18020	291.93	0.67585	0.059563	0.029616	33.765	45.074	48.104	133.23	27.873	37.232	470.45	69.642	12.114	0.024241
370.38	0.091805	53.306	0.018760	7.3395	7.3412	22.985	68.144	75.891	1545.5	-0.17983	289.97	0.67612	0.059443	0.030251	33.057	45.087	48.122	133.09	27.901	37.275	470.77	69.086	12.136	0.024301
371.01	0.093902	53.281	0.018768	7.3868	7.3886	23.112	68.085	75.903	1545.0	-0.17946	288.04	0.67637	0.059324	0.030896	32.366	45.101	48.140	132.95	27.929	37.319	471.09	68.538	12.158	0.024362
371.63	0.096038	53.257	0.018777	7.4341	7.4359	23.240	68.027	75.916	1544.5	-0.17909	286.14	0.67662	0.059204	0.031553	31.692	45.114	48.158	132.82	27.958	37.363	471.42	67.997	12.179	0.024422
372.25	0.098214	53.232	0.018786	7.4814	7.4832	23.367	67.968	75.928	1543.9	-0.17872	284.25	0.67687	0.059085	0.032221	31.035	45.127	48.176	132.68	27.987	37.408	471.74	67.463	12.201	0.024483
372.88	0.10043	53.207	0.018794	7.5287	7.5306	23.494	67.910	75.941	1543.4	-0.17835	282.39	0.67711	0.058965	0.032901	30.394	45.141	48.193	132.55	28.016	37.453	472.06	66.937	12.223	0.024543
373.50	0.10269	53.183	0.018803	7.5760	7.5780	23.621	67.852	75.954	1542.8	-0.17798	280.55	0.67734	0.058844	0.033593	29.768	45.154	48.211	132.41	28.045	37.498	472.37	66.417	12.244	0.024605
374.12	0.10499	53.158	0.018812	7.6233	7.6253	23.747	67.793	75.967	1542.3	-0.17761	278.73	0.67757	0.058724	0.034296	29.158	45.167	48.229	132.28	28.075	37.544	472.69	65.904	12.266	0.024666
374.75	0.10733	53.133	0.018821	7.6707	7.6727	23.874	67.735	75.980	1541.7	-0.17724	276.94	0.67780	0.058604	0.035011	28.562	45.181	48.246	132.14	28.105	37.591	473.01	65.397	12.288	0.024727
375.37	0.10972	53.107	0.018830	7.7180	7.7201	24.000	67.677	75.993	1541.1	-0.17686	275.16	0.67802	0.058483	0.035738	27.981	45.194	48.264	132.01	28.136	37.638	473.32	64.897	12.309	0.024789
375.99	0.11215	53.082	0.018839	7.7654	7.7675	24.126	67.619	76.007	1540.5	-0.17649	273.40	0.67823	0.058362	0.036478	27.414	45.207	48.282	131.88	28.166	37.685	473.63	64.404	12.331	0.024851
376.62	0.11462	53.057	0.018848	7.8127	7.8149	24.252	67.561	76.021	1539.9	-0.17611	271.67	0.67844	0.058241	0.037230	26.860	45.220	48.299	131.75	28.198	37.734	473.94	63.916	12.353	0.024913
377.24	0.11714	53.032	0.018857	7.8601	7.8623	24.378	67.503	76.035	1539.3	-0.17573	269.95	0.67865	0.058120	0.037994	26.320	45.233	48.316	131.62	28.229	37.782	474.25	63.435	12.374	0.024976
377.86	0.11970	53.006	0.018866	7.9075	7.9097	24.503	67.445	76.049	1538.7	-0.17535	268.26	0.67885	0.057999	0.038772	25.792	45.247	48.334	131.48	28.261	37.831	474.56	62.960	12.396	0.025038
378.49	0.12231	52.980	0.018875	7.9549	7.9572	24.628	67.387	76.063	1538.1	-0.17497	266.58	0.67904	0.057877	0.039562	25.277	45.260	48.351	131.35	28.293	37.881	474.87	62.490	12.417	0.025101
379.11	0.12497	52.955	0.018884	8.0023	8.0046	24.754	67.329	76.077	1537.4	-0.17459	264.92	0.67923	0.057755	0.040365	24.774	45.273	48.369	131.22	28.325	37.931	475.18	62.027	12.439	0.025164
379.73	0.12767	52.929	0.018893	8.0497	8.0521	24.879	67.272	76.092	1536.7	-0.17420	263.28	0.67942	0.057634	0.041182	24.283	45.286	48.386	131.10	28.358	37.982	475.48	61.569	12.461	0.025228
380.35	0.13043	52.903	0.018903	8.0971	8.0995	25.003	67.214	76.106	1536.1	-0.17382	261.66	0.67960	0.057511	0.042011	23.803	45.299	48.403	130.97	28.391	38.034	475.79	61.116	12.482	0.025291
380.98	0.13323	52.877	0.018912	8.1445	8.1470	25.128	67.157	76.121	1535.4	-0.17343	260.06	0.67977	0.057389	0.042855	23.335	45.312	48.420	130.84	28.424	38.086	476.09	60.669	12.504	0.025355
381.60	0.13608	52.851	0.018921	8.1919	8.1945	25.252	67.099	76.136	1534.7	-0.17305	258.47	0.67994	0.057267	0.043712	22.877	45.325	48.438	130.71	28.457	38.138	476.39	60.228	12.526	0.025419
382.22	0.13898	52.825	0.018931	8.2394	8.2420	25.376	67.042	76.152	1534.0	-0.17266	256.91	0.68011	0.057144	0.044583	22.430	45.337	48.455	130.58	28.491	38.191	476.69	59.791	12.547	0.025483
382.85	0.14193	52.798	0.018940	8.2868	8.2895	25.500	66.984	76.167	1533.3	-0.17227	255.36	0.68027	0.057022	0.045468	21.994	45.350	48.472	130.46	28.526	38.245	476.99	59.360	12.569	0.025548
383.47	0.14493	52.772	0.018949	8.3343	8.3370	25.624	66.927	76.183	1532.5	-0.17188	253.82	0.68043	0.056899	0.046367	21.567	45.363	48.489	130.33	28.560	38.299	477.29	58.934	12.591	0.025613
384.09	0.14799	52.746	0.018959	8.3817	8.3845	25.748	66.870	76.198	1531.8	-0.17148	252.31	0.68058	0.056776	0.047280	21.151	45.376	48.506	130.21	28.595	38.354	477.58	58.512	12.612	0.025678
384.72	0.15109	52.719	0.018968	8.4292	8.4321	25.872	66.813	76.214	1531.1	-0.17109	250.81	0.68072	0.056652	0.048208	20.743	45.389	48.523	130.08	28.631	38.409	477.88	58.096	12.634	0.025743
385.34	0.15425	52.692	0.018978	8.4767	8.4796	25.995	66.756	76.230	1530.3	-0.17069	249.32	0.68087	0.056529	0.049151	20.345	45.401	48.540	129.96	28.666	38.465	478.17	57.684	12.656	0.025809
385.96	0.15747	52.666	0.018988	8.5242	8.5272	26.118	66.699	76.247	1529.5	-0.17030	247.86	0.68100	0.056405	0.050109	19.957	45.414	48.557	129.83	28.702	38.522	478.46	57.277	12.677	0.025874
386.59	0.16074	52.639	0.018997	8.5717	8.5747	26.241	66.642	76.263	1528.7	-0.16990	246.41	0.68114	0.056282	0.051081	19.577	45.427	48.574	129.71	28.739	38.579	478.75	56.875	12.699	0.025940
387.21	0.16406	52.612	0.019007	8.6192	8.6223	26.364	66.585	76.280	1528.0	-0.16950	244.97	0.68126	0.056158	0.052069	19.205	45.440	48.590	129.58	28.775	38.637	479.04	56.477	12.720	0.026007
387.83	0.16744	52.585	0.019017	8.6667	8.6699	26.486	66.528	76.297	1527.2	-0.16910	243.55	0.68139	0.056034	0.053073	18.842	45.452	48.607	129.46	28.812	38.695	479.33	56.084	12.742	0.026073
388.46	0.17088	52.558	0.019027	8.7142	8.7175	26.609	66.471	76.314	1526.3	-0.16869	242.15	0.68150	0.055909	0.054092	18.487	45.465	48.624	129.34	28.850	38.754	479.62	55.694	12.764	0.026140
389.08	0.17438	52.530	0.019037	8.7618	8.7651	26.731	66.415	76.331	1525.5	-0.16829	240.76	0.68162	0.055785	0.055126	18.140	45.477	48.640	129.22	28.887	38.814	479.90	55.310	12.785	0.026207
389.70	0.17793	52.503	0.019046	8.8093	8.8127	26.853	66.358	76.348	1524.7	-0.16788	239.38	0.68173	0.055660	0.056177	17.801	45.490	48.657	129.10	28.926	38.874	480.19	54.929	12.807	0.026274
390.33	0.18155	52.476	0.019056	8.8569	8.8604	26.975	66.302	76.366	1523.8	-0.16747	238.02	0.68183	0.055535	0.057244	17.469	45.502	48.674	128.98	28.964	38.935	480.47	54.552	12.829	0.026342
390.95	0.18522	52.448	0.019066	8.9045	8.9080	27.097	66.246	76.384	1523.0	-0.16707	236.67	0.68193	0.055411	0.058327	17.145	45.515	48.690	128.85	29.003	38.996	480.75	54.180	12.850	0.026410
391.57	0.18895	52.421	0.019076	8.9521	8.9557	27.219	66.189	76.402	1522.1	-0.16665	235.34	0.68202	0.055285	0.059427	16.827	45.527	48.707	128.73	29.042	39.058	481.03	53.811	12.872	0.026478
392.20	0.19275	52.393	0.019087	8.9997	9.0033	27.340	66.133	76.420	1521.3	-0.16624	234.02	0.68211	0.055160	0.060543	16.517	45.539	48.723	128.62	29.081	39.121	481.31	53.446	12.893	0.026547
392.82	0.19660	52.365	0.019097	9.0473	9.0510	27.461	66.077	76.438	1520.4	-0.16583	232.72	0.68220	0.055035	0.061676	16.214	45.552	48.739	128.50	29.121	39.185	481.59	53.085	12.915	0.026615
393.44	0.20052	52.337	0.019107	9.0949	9.0987	27.583	66.021	76.457	1519.5	-0.16541	231.43	0.68228	0.054909	0.062827	15.917	45.564	48.756	128.38	29.162	39.249	481.86	52.728	12.937	0.026684
394.07	0.20451	52.309	0.019117	9.1425	9.1464	27.704	65.965	76.475	1518.6	-0.16499	230.15	0.68236	0.054783	0.063994	15.626	45.576	48.772	128.26	29.202	39.313	482.14	52.375	12.958	0.026753
394.69	0.20855	52.281	0.019127	9.1901	9.1941	27.824	65.910	76.494	1517.7	-0.16457	228.89	0.68243	0.054657	0.065179	15.342	45.588	48.788	128.14	29.243	39.379	482.41	52.025	12.980	0.026823
395.31	0.21267	52.253	0.019138	9.2378	9.2419	27.945	65.854	76.514	1516.7	-0.16415	227.64	0.68249	0.054531	0.066382	15.064	45.601	48.804	128.02	29.285	39.445	482.68	51.679	13.001	0.026893
395.94	0.21685	52.225	0.019148	9.2855	9.2896	28.065	65.798	76.533	1515.8	-0.16373	226.40	0.68256	0.054405	0.067603	14.792	45.613	48.820	127.91	29.326	39.512	482.95	51.336	13.023	0.026963
396.56	0.22109	52.197	0.019158	9.3331	9.3374	28.186	65.743	76.553	1514.9	-0.16330	225.17	0.68261	0.054279	0.068841	14.526	45.625	48.836	127.79	29.369	39.579	483.22	50.996	13.045	0.027033
397.18	0.22540	52.168	0.019169	9.3808	9.3851	28.306	65.687	76.572	1513.9	-0.16288	223.96	0.68267	0.054152	0.070098	14.266	45.637	48.852	127.67	29.411	39.647	483.48	50.660	13.066	0.027104
397.81	0.22979	52.140	0.019179	9.4285	9.4329	28.426	65.632	76.592	1512.9	-0.16245	222.76	0.68272	0.054025	0.071373	14.011	45.649	48.868	127.56	29.454	39.716	483.75	50.327	13.088	0.027175
398.43	0.23424	52.111	0.019190	9.4762	9.4807	28.546	65.577	76.612	1512.0	-0.16202	221.57	0.68276	0.053899	0.072667	13.761	45.661	48.884	127.44	29.497	39.785	484.01	49.998	13.109	0.027246
399.05	0.23876	52.082	0.019200	9.5239	9.5285	28.665	65.522	76.633	1511.0	-0.16159	220.39	0.68280	0.053772	0.073980	13.517	45.673	48.900	127.33	29.541	39.855	484.28	49.672	13.131	0.027317
399.68	0.24335	52.053	0.019211	9.5717	9.5763	28.785	65.467	76.653	1510.0	-0.16115	219.23	0.68284	0.053644	0.075312	13.278	45.685	48.916	127.21	29.585	39.926	484.54	49.348	13.152	0.027389
400.30	0.24801	52.025	0.019222	9.6194	9.6242	28.904	65.412	76.674	1509.0	-0.16071	218.07	0.68287	0.053517	0.076663	13.044	45.697	48.932	127.10	29.629	39.998	484.80	49.028	13.174	0.027461
400.92	0.25274	51.996	0.019232	9.6672	9.6720	29.024	65.357	76.695	1508.0	-0.16028	216.93	0.68289	0.053389	0.078033	12.815	45.708	48.947	126.99	29.674	40.070	485.06	48.711	13.196	0.027534
401.54	0.25755	51.967	0.019243	9.7149	9.7199	29.143	65.302	76.716	1507.0	-0.15984	215.80	0.68291	0.053262	0.079423	12.591	45.720	48.963	126.87	29.719	40.143	485.31	48.397	13.217	0.027606
402.17	0.26243	51.937	0.019254	9.7627	9.7678	29.262	65.248	76.738	1505.9	-0.15939	214.68	0.68293	0.053134	0.080833	12.371	45.732	48.979	126.76	29.765	40.216	485.57	48.086	13.239	0.027679
402.79	0.26739	51.908	0.019265	9.8105	9.8157	29.380	65.193	76.759	1504.9	-0.15895	213.57	0.68295	0.053006	0.082263	12.156	45.744	48.994	126.65	29.810	40.291	485.82	47.778	13.260	0.027752
403.41	0.27242	51.879	0.019276	9.8583	9.8636	29.499	65.139	76.781	1503.8	-0.15850	212.48	0.68295	0.052878	0.083714	11.945	45.755	49.010	126.54	29.857	40.366	486.07	47.472	13.282	0.027826
404.04	0.27753	51.849	0.019287	9.9061	9.9115	29.617	65.085	76.803	1502.8	-0.15806	211.39	0.68296	0.052749	0.085185	11.739	45.767	49.025	126.42	29.903	40.441	486.32	47.169	13.303	0.027900
404.66	0.28272	51.820	0.019298	9.9540	9.9594	29.736	65.030	76.826	1501.7	-0.15761	210.31	0.68296	0.052621	0.086676	11.537	45.779	49.040	126.31	29.951	40.518	486.57	46.869	13.325	0.027974
405.28	0.28799	51.790	0.019309	10.002	10.007	29.854	64.976	76.848	1500.6	-0.15715	209.25	0.68295	0.052492	0.088189	11.339	45.790	49.056	126.20	29.998	40.595	486.82	46.572	13.346	0.028049
405.91	0.29333	51.760	0.019320	10.050	10.055	29.972	64.922	76.871	1499.5	-0.15670	208.19	0.68294	0.052364	0.089722	11.145	45.802	49.071	126.09	30.046	40.673	487.07	46.277	13.368	0.028123
406.53	0.29875	51.731	0.019331	10.098	10.103	30.090	64.868	76.894	1498.4	-0.15624	207.15	0.68293	0.052235	0.091277	10.956	45.813	49.086	125.98	30.094	40.751	487.31	45.985	13.389	0.028198
407.15	0.30426	51.701	0.019342	10.145	10.151	30.207	64.815	76.917	1497.3	-0.15578	206.11	0.68291	0.052106	0.092854	10.770	45.824	49.101	125.87	30.143	40.831	487.56	45.696	13.411	0.028274
407.78	0.30985	51.671	0.019353	10.193	10.199	30.325	64.761	76.940	1496.2	-0.15532	205.09	0.68289	0.051976	0.094452	10.587	45.836	49.116	125.76	30.192	40.911	487.80	45.409	13.432	0.028350
408.40	0.31552	51.641	0.019365	10.241	10.247	30.442	64.707	76.964	1495.1	-0.15486	204.07	0.68287	0.051847	0.096073	10.409	45.847	49.131	125.65	30.241	40.992	488.04	45.124	13.454	0.028426
409.02	0.32127	51.610	0.019376	10.289	10.295	30.560	64.654	76.988	1494.0	-0.15440	203.07	0.68284	0.051717	0.097716	10.234	45.858	49.146	125.54	30.291	41.073	488.28	44.842	13.475	0.028502
409.65	0.32711	51.580	0.019387	10.337	10.343	30.677	64.601	77.012	1492.8	-0.15393	202.07	0.68280	0.051588	0.099381	10.062	45.870	49.161	125.44	30.341	41.156	488.51	44.563	13.497	0.028579
410.27	0.33303	51.550	0.019399	10.385	10.392	30.794	64.547	77.036	1491.7	-0.15346	201.08	0.68276	0.051458	0.10107	9.8942	45.881	49.176	125.33	30.391	41.239	488.75	44.285	13.518	0.028656
410.89	0.33904	51.519	0.019410	10.433	10.440	30.911	64.494	77.061	1490.5	-0.15299	200.11	0.68272	0.051328	0.10278	9.7295	45.892	49.191	125.22	30.442	41.322	488.98	44.010	13.540	0.028733
411.52	0.34514	51.489	0.019422	10.481	10.488	31.027	64.441	77.086	1489.3	-0.15251	199.14	0.68267	0.051198	0.10451	9.5681	45.903	49.205	125.11	30.494	41.407	489.21	43.738	13.561	0.028810
412.14	0.35132	51.458	0.019433	10.529	10.536	31.144	64.388	77.111	1488.2	-0.15203	198.18	0.68262	0.051067	0.10627	9.4099	45.914	49.220	125.01	30.545	41.492	489.45	43.467	13.583	0.028888
412.76	0.35760	51.427	0.019445	10.577	10.584	31.260	64.336	77.136	1487.0	-0.15156	197.23	0.68256	0.050937	0.10805	9.2548	45.925	49.235	124.90	30.597	41.578	489.68	43.199	13.604	0.028967
413.39	0.36396	51.397	0.019457	10.625	10.632	31.377	64.283	77.162	1485.8	-0.15107	196.29	0.68250	0.050806	0.10986	9.1027	45.936	49.249	124.79	30.650	41.665	489.90	42.933	13.626	0.029045
414.01	0.37041	51.366	0.019468	10.673	10.680	31.493	64.230	77.187	1484.6	-0.15059	195.36	0.68244	0.050676	0.11169	8.9536	45.947	49.264	124.69	30.703	41.753	490.13	42.669	13.647	0.029124
414.63	0.37696	51.335	0.019480	10.721	10.729	31.609	64.178	77.213	1483.3	-0.15010	194.43	0.68237	0.050545	0.11354	8.8075	45.958	49.278	124.58	30.756	41.841	490.35	42.407	13.669	0.029204
415.26	0.38360	51.304	0.019492	10.769	10.777	31.725	64.125	77.239	1482.1	-0.14962	193.52	0.68230	0.050414	0.11542	8.6642	45.969	49.292	124.48	30.810	41.930	490.58	42.148	13.690	0.029283
415.88	0.39034	51.272	0.019504	10.817	10.825	31.840	64.073	77.266	1480.9	-0.14912	192.61	0.68222	0.050283	0.11732	8.5236	45.980	49.307	124.37	30.864	42.020	490.80	41.890	13.712	0.029363
416.50	0.39716	51.241	0.019516	10.865	10.873	31.956	64.021	77.293	1479.6	-0.14863	191.71	0.68214	0.050151	0.11925	8.3858	45.990	49.321	124.27	30.918	42.111	491.02	41.635	13.733	0.029443
417.13	0.40409	51.210	0.019528	10.914	10.921	32.071	63.969	77.320	1478.4	-0.14813	190.82	0.68205	0.050020	0.12120	8.2507	46.001	49.335	124.16	30.973	42.202	491.24	41.381	13.754	0.029524
417.75	0.41111	51.178	0.019540	10.962	10.970	32.187	63.917	77.347	1477.1	-0.14764	189.94	0.68196	0.049888	0.12318	8.1181	46.012	49.349	124.06	31.028	42.294	491.45	41.130	13.776	0.029605
418.37	0.41823	51.147	0.019552	11.010	11.018	32.302	63.865	77.374	1475.9	-0.14713	189.06	0.68187	0.049756	0.12519	7.9881	46.022	49.363	123.96	31.083	42.387	491.67	40.880	13.797	0.029686
419.00	0.42545	51.115	0.019564	11.058	11.066	32.417	63.814	77.402	1474.6	-0.14663	188.20	0.68177	0.049624	0.12722	7.8606	46.033	49.377	123.85	31.139	42.481	491.88	40.632	13.819	0.029768
419.62	0.43276	51.083	0.019576	11.106	11.115	32.532	63.762	77.430	1473.3	-0.14612	187.34	0.68167	0.049492	0.12927	7.7355	46.043	49.391	123.75	31.195	42.576	492.09	40.386	13.840	0.029850
420.24	0.44018	51.052	0.019588	11.154	11.163	32.647	63.711	77.458	1472.0	-0.14561	186.48	0.68156	0.049360	0.13136	7.6128	46.054	49.405	123.65	31.252	42.671	492.30	40.142	13.861	0.029932
420.86	0.44770	51.020	0.019600	11.203	11.211	32.761	63.659	77.487	1470.7	-0.14510	185.64	0.68145	0.049228	0.13347	7.4925	46.064	49.419	123.54	31.309	42.767	492.51	39.900	13.883	0.030015
421.49	0.45533	50.988	0.019613	11.251	11.260	32.876	63.608	77.515	1469.4	-0.14459	184.80	0.68134	0.049095	0.13560	7.3744	46.075	49.432	123.44	31.367	42.864	492.72	39.660	13.904	0.030098
422.11	0.46305	50.955	0.019625	11.299	11.308	32.990	63.557	77.544	1468.1	-0.14407	183.98	0.68122	0.048963	0.13777	7.2585	46.085	49.446	123.34	31.424	42.962	492.93	39.422	13.926	0.030182
422.73	0.47088	50.923	0.019637	11.347	11.357	33.104	63.506	77.574	1466.7	-0.14355	183.15	0.68110	0.048830	0.13996	7.1448	46.095	49.460	123.24	31.482	43.061	493.13	39.185	13.947	0.030265
423.36	0.47882	50.891	0.019650	11.396	11.405	33.219	63.455	77.603	1465.4	-0.14303	182.34	0.68097	0.048697	0.14218	7.0332	46.105	49.473	123.14	31.541	43.160	493.33	38.950	13.968	0.030350
423.98	0.48686	50.859	0.019662	11.444	11.453	33.333	63.404	77.633	1464.0	-0.14250	181.53	0.68084	0.048564	0.14443	6.9237	46.116	49.487	123.04	31.600	43.260	493.53	38.717	13.990	0.030434
424.60	0.49502	50.826	0.019675	11.492	11.502	33.446	63.354	77.663	1462.7	-0.14197	180.73	0.68071	0.048431	0.14671	6.8163	46.126	49.500	122.94	31.659	43.361	493.73	38.485	14.011	0.030519
425.23	0.50328	50.793	0.019688	11.541	11.550	33.560	63.303	77.693	1461.3	-0.14144	179.94	0.68057	0.048297	0.14901	6.7108	46.136	49.513	122.84	31.719	43.463	493.93	38.256	14.032	0.030604
425.85	0.51165	50.761	0.019700	11.589	11.599	33.674	63.253	77.724	1460.0	-0.14091	179.15	0.68043	0.048164	0.15135	6.6073	46.146	49.526	122.74	31.779	43.565	494.12	38.028	14.054	0.030690
426.47	0.52013	50.728	0.019713	11.637	11.648	33.787	63.202	77.755	1458.6	-0.14037	178.37	0.68028	0.048030	0.15371	6.5057	46.156	49.540	122.64	31.839	43.669	494.32	37.801	14.075	0.030776
427.10	0.52872	50.695	0.019726	11.686	11.696	33.901	63.152	77.786	1457.2	-0.13983	177.60	0.68013	0.047897	0.15610	6.4059	46.166	49.553	122.54	31.900	43.773	494.51	37.576	14.097	0.030862
427.72	0.53743	50.662	0.019739	11.734	11.745	34.014	63.102	77.817	1455.8	-0.13929	176.84	0.67998	0.047763	0.15853	6.3080	46.176	49.566	122.44	31.961	43.878	494.70	37.353	14.118	0.030949
428.34	0.54625	50.629	0.019751	11.782	11.793	34.127	63.052	77.849	1454.4	-0.13874	176.08	0.67982	0.047629	0.16098	6.2119	46.185	49.579	122.34	32.022	43.983	494.89	37.131	14.139	0.031036
428.97	0.55519	50.596	0.019764	11.831	11.842	34.240	63.002	77.881	1453.0	-0.13819	175.32	0.67966	0.047495	0.16346	6.1176	46.195	49.591	122.24	32.084	44.090	495.08	36.911	14.161	0.031123
429.59	0.56424	50.563	0.019777	11.879	11.891	34.353	62.953	77.913	1451.5	-0.13764	174.58	0.67949	0.047360	0.16598	6.0249	46.205	49.604	122.14	32.146	44.197	495.26	36.693	14.182	0.031211
430.21	0.57341	50.529	0.019790	11.928	11.939	34.466	62.903	77.945	1450.1	-0.13709	173.84	0.67933	0.047226	0.16852	5.9339	46.214	49.617	122.05	32.209	44.306	495.45	36.476	14.203	0.031300
430.84	0.58270	50.496	0.019804	11.976	11.988	34.579	62.854	77.978	1448.7	-0.13653	173.10	0.67926	0.047091	0.17110	5.8446	46.224	49.630	121.95	32.271	44.415	495.63	36.260	14.224	0.031388
431.46	0.59211	50.463	0.019817	12.025	12.037	34.691	62.804	78.011	1447.2	-0.13597	172.37	0.67914	0.046957	0.17371	5.7569	46.234	49.642	121.85	32.335	44.525	495.81	36.047	14.246	0.031477
432.08	0.60163	50.429	0.019830	12.073	12.085	34.804	62.755	78.045	1445.8	-0.13540	171.65	0.67899	0.046822	0.17634	5.6707	46.243	49.655	121.75	32.398	44.635	495.99	35.834	14.267	0.031567
432.71	0.61128	50.395	0.019843	12.122	12.134	34.916	62.706	78.078	1444.3	-0.13483	170.94	0.67884	0.046687	0.17902	5.5861	46.253	49.667	121.66	32.462	44.747	496.17	35.623	14.288	0.031656
433.33	0.62106	50.361	0.019856	12.171	12.183	35.028	62.657	78.112	1442.8	-0.13426	170.23	0.67868	0.046552	0.18172	5.5030	46.262	49.680	121.56	32.526	44.859	496.34	35.414	14.310	0.031747
433.95	0.63096	50.328	0.019870	12.219	12.232	35.140	62.608	78.147	1441.3	-0.13369	169.52	0.67852	0.046417	0.18445	5.4214	46.271	49.692	121.46	32.591	44.972	496.52	35.206	14.331	0.031837
434.58	0.64098	50.294	0.019883	12.268	12.280	35.252	62.559	78.181	1439.9	-0.13311	168.82	0.67834	0.046281	0.18722	5.3412	46.281	49.704	121.37	32.656	45.086	496.69	34.999	14.352	0.031928
435.20	0.65113	50.259	0.019897	12.316	12.329	35.364	62.511	78.216	1438.4	-0.13253	168.13	0.67817	0.046146	0.19003	5.2625	46.290	49.716	121.27	32.721	45.201	496.86	34.794	14.374	0.032019
435.82	0.66140	50.225	0.019910	12.365	12.378	35.476	62.462	78.251	1436.8	-0.13194	167.44	0.67798	0.046010	0.19286	5.1851	46.299	49.728	121.18	32.786	45.317	497.03	34.590	14.395	0.032111
436.45	0.67181	50.191	0.019924	12.414	12.427	35.587	62.414	78.287	1435.3	-0.13136	166.76	0.67780	0.045874	0.19573	5.1091	46.308	49.740	121.08	32.852	45.433	497.20	34.388	14.416	0.032203
437.07	0.68234	50.157	0.019938	12.462	12.476	35.699	62.365	78.322	1433.8	-0.13077	166.09	0.67761	0.045739	0.19863	5.0344	46.317	49.752	120.99	32.918	45.550	497.36	34.187	14.437	0.032296
437.69	0.69301	50.122	0.019951	12.511	12.525	35.810	62.317	78.358	1432.3	-0.13017	165.42	0.67741	0.045603	0.20157	4.9610	46.326	49.764	120.89	32.985	45.669	497.53	33.987	14.459	0.032389
438.32	0.70381	50.088	0.019965	12.560	12.574	35.921	62.269	78.395	1430.7	-0.12957	164.75	0.67721	0.045466	0.20454	4.8889	46.335	49.776	120.80	33.052	45.788	497.69	33.789	14.480	0.032482
438.94	0.71474	50.053	0.019979	12.609	12.623	36.033	62.221	78.431	1429.2	-0.12897	164.09	0.67701	0.045330	0.20755	4.8181	46.344	49.788	120.70	33.119	45.907	497.85	33.592	14.501	0.032576
439.56	0.72580	50.018	0.019993	12.657	12.672	36.144	62.173	78.468	1427.6	-0.12837	163.44	0.67680	0.045194	0.21059	4.7485	46.353	49.799	120.61	33.186	46.028	498.01	33.396	14.522	0.032670
440.18	0.73700	49.983	0.020007	12.706	12.721	36.255	62.126	78.506	1426.1	-0.12776	162.79	0.67659	0.045057	0.21367	4.6801	46.361	49.811	120.51	33.254	46.150	498.17	33.202	14.544	0.032765
440.81	0.74834	49.948	0.020021	12.755	12.770	36.365	62.078	78.543	1424.5	-0.12714	162.15	0.67637	0.044921	0.21679	4.6128	46.370	49.822	120.42	33.322	46.272	498.32	33.009	14.565	0.032860
441.43	0.75982	49.913	0.020035	12.804	12.819	36.476	62.031	78.581	1422.9	-0.12653	161.51	0.67615	0.044784	0.21994	4.5468	46.379	49.834	120.33	33.391	46.395	498.48	32.817	14.586	0.032956
442.05	0.77143	49.878	0.020049	12.853	12.868	36.587	61.983	78.619	1421.3	-0.12591	160.88	0.67592	0.044647	0.22312	4.4818	46.387	49.845	120.23	33.459	46.519	498.63	32.627	14.607	0.033051
442.68	0.78318	49.843	0.020063	12.902	12.917	36.697	61.936	78.658	1419.7	-0.12529	160.25	0.67569	0.044510	0.22635	4.4180	46.396	49.856	120.14	33.529	46.644	498.78	32.437	14.629	0.033148
443.30	0.79508	49.808	0.020077	12.950	12.966	36.808	61.889	78.697	1418.1	-0.12466	159.62	0.67546	0.044373	0.22961	4.3552	46.404	49.867	120.05	33.598	46.770	498.93	32.250	14.650	0.033244
443.92	0.80712	49.772	0.020092	12.999	13.016	36.918	61.842	78.736	1416.5	-0.12403	159.00	0.67522	0.044236	0.23291	4.2935	46.413	49.878	119.96	33.668	46.897	499.07	32.063	14.671	0.033342
444.55	0.81930	49.737	0.020106	13.048	13.065	37.028	61.795	78.776	1414.9	-0.12339	158.39	0.67498	0.044098	0.23625	4.2329	46.421	49.889	119.86	33.737	47.024	499.22	31.878	14.692	0.033439
445.17	0.83163	49.701	0.020120	13.097	13.114	37.138	61.748	78.816	1413.3	-0.12275	157.78	0.67474	0.043961	0.23962	4.1733	46.430	49.900	119.77	33.808	47.153	499.36	31.693	14.714	0.033537
445.79	0.84410	49.665	0.020135	13.146	13.163	37.248	61.702	78.856	1411.6	-0.12211	157.18	0.67449	0.043823	0.24303	4.1147	46.438	49.911	119.68	33.878	47.282	499.50	31.510	14.735	0.033636
446.42	0.85672	49.629	0.020149	13.195	13.213	37.358	61.655	78.896	1410.0	-0.12146	156.58	0.67424	0.043686	0.24649	4.0570	46.446	49.922	119.59	33.949	47.412	499.64	31.329	14.756	0.033735
447.04	0.86949	49.593	0.020164	13.244	13.262	37.468	61.609	78.937	1408.3	-0.12081	155.98	0.67398	0.043548	0.24998	4.0003	46.454	49.932	119.50	34.020	47.543	499.78	31.148	14.777	0.033834
447.66	0.88241	49.557	0.020179	13.293	13.311	37.578	61.563	78.978	1406.7	-0.12016	155.39	0.67372	0.043410	0.25351	3.9446	46.462	49.943	119.41	34.092	47.675	499.92	30.969	14.798	0.033934
448.29	0.89548	49.521	0.020193	13.342	13.361	37.687	61.516	79.020	1405.0	-0.11950	154.81	0.67346	0.043272	0.25708	3.8898	46.470	49.953	119.32	34.163	47.808	500.05	30.791	14.820	0.034034
448.91	0.90871	49.485	0.020208	13.392	13.410	37.797	61.470	79.062	1403.3	-0.11884	154.22	0.67319	0.043133	0.26069	3.8359	46.478	49.964	119.22	34.235	47.941	500.18	30.614	14.841	0.034135
449.53	0.92208	49.449	0.020223	13.441	13.459	37.906	61.425	79.104	1401.6	-0.11817	153.65	0.67292	0.042995	0.26434	3.7829	46.486	49.974	119.13	34.308	48.076	500.32	30.438	14.862	0.034236
450.16	0.93561	49.412	0.020238	13.490	13.509	38.015	61.379	79.147	1399.9	-0.11750	153.07	0.67265	0.042857	0.26804	3.7308	46.494	49.984	119.04	34.380	48.211	500.44	30.263	14.883	0.034337
450.78	0.94930	49.376	0.020253	13.539	13.558	38.125	61.333	79.190	1398.2	-0.11682	152.51	0.67237	0.042718	0.27177	3.6796	46.501	49.994	118.95	34.453	48.347	500.57	30.090	14.905	0.034440
451.40	0.96315	49.339	0.020268	13.588	13.608	38.234	61.288	79.233	1396.5	-0.11614	151.94	0.67209	0.042580	0.27555	3.6291	46.509	50.005	118.86	34.526	48.484	500.70	29.918	14.926	0.034542
452.03	0.97715	49.302	0.020283	13.637	13.657	38.343	61.242	79.277	1394.8	-0.11546	151.38	0.67180	0.042441	0.27937	3.5795	46.517	50.014	118.77	34.599	48.622	500.82	29.746	14.947	0.034645
452.65	0.99131	49.266	0.020298	13.687	13.707	38.452	61.197	79.321	1393.1	-0.11477	150.83	0.67151	0.042302	0.28323	3.5307	46.524	50.024	118.69	34.673	48.761	500.94	29.576	14.968	0.034748
453.27	1.0056	49.229	0.020313	13.736	13.756	38.560	61.152	79.365	1391.4	-0.11408	150.27	0.67122	0.042163	0.28713	3.4827	46.532	50.034	118.60	34.747	48.901	501.06	29.407	14.989	0.034852
453.90	1.0201	49.192	0.020329	13.785	13.806	38.669	61.107	79.410	1389.6	-0.11338	149.73	0.67092	0.042024	0.29108	3.4355	46.539	50.044	118.51	34.821	49.042	501.18	29.239	15.011	0.034957
454.52	1.0348	49.155	0.020344	13.835	13.856	38.778	61.062	79.455	1387.9	-0.11268	149.18	0.67062	0.041885	0.29507	3.3891	46.547	50.054	118.42	34.895	49.183	501.30	29.073	15.032	0.035062
455.14	1.0496	49.117	0.020359	13.884	13.905	38.886	61.017	79.501	1386.1	-0.11198	148.64	0.67032	0.041745	0.29910	3.3434	46.554	50.063	118.33	34.970	49.326	501.41	28.907	15.053	0.035167
455.77	1.0646	49.080	0.020375	13.933	13.955	38.995	60.972	79.547	1384.4	-0.11127	148.11	0.67001	0.041606	0.30318	3.2984	46.561	50.073	118.24	35.045	49.469	501.53	28.743	15.074	0.035273
456.39	1.0797	49.043	0.020390	13.983	14.005	39.103	60.927	79.593	1382.6	-0.11055	147.57	0.66970	0.041466	0.30730	3.2541	46.568	50.082	118.15	35.120	49.614	501.64	28.579	15.095	0.035379
457.01	1.0950	49.005	0.020406	14.032	14.054	39.211	60.883	79.640	1380.8	-0.10983	147.05	0.66938	0.041327	0.31147	3.2106	46.575	50.091	118.06	35.196	49.759	501.75	28.417	15.117	0.035486
457.64	1.1105	48.967	0.020422	14.082	14.104	39.320	60.839	79.687	1379.0	-0.10911	146.52	0.66907	0.041187	0.31568	3.1678	46.582	50.100	117.98	35.271	49.905	501.85	28.255	15.138	0.035593
458.26	1.1262	48.930	0.020438	14.131	14.154	39.428	60.794	79.735	1377.2	-0.10838	146.00	0.66874	0.041047	0.31994	3.1256	46.589	50.109	117.89	35.347	50.052	501.96	28.095	15.159	0.035701
458.88	1.1420	48.892	0.020453	14.181	14.204	39.536	60.750	79.782	1375.4	-0.10764	145.48	0.66842	0.040907	0.32424	3.0841	46.596	50.118	117.80	35.423	50.201	502.06	27.936	15.180	0.035809
459.50	1.1580	48.854	0.020469	14.230	14.254	39.644	60.706	79.831	1373.6	-0.10690	144.97	0.66809	0.040767	0.32860	3.0433	46.603	50.127	117.71	35.500	50.350	502.17	27.778	15.201	0.035917
460.13	1.1742	48.816	0.020485	14.280	14.304	39.751	60.662	79.879	1371.8	-0.10616	144.46	0.66776	0.040627	0.33299	3.0031	46.610	50.136	117.63	35.576	50.500	502.27	27.621	15.223	0.036027
460.75	1.1906	48.778	0.020501	14.329	14.354	39.859	60.619	79.928	1370.0	-0.10541	143.96	0.66742	0.040486	0.33744	2.9635	46.617	50.145	117.54	35.653	50.650	502.36	27.464	15.244	0.036136
461.37	1.2071	48.739	0.020517	14.379	14.404	39.967	60.575	79.978	1368.1	-0.10466	143.45	0.66708	0.040346	0.34193	2.9245	46.623	50.154	117.45	35.730	50.802	502.46	27.309	15.265	0.036247
462.00	1.2238	48.701	0.020534	14.428	14.454	40.074	60.532	80.028	1366.3	-0.10390	142.96	0.66674	0.040205	0.34647	2.8862	46.630	50.162	117.37	35.808	50.955	502.55	27.155	15.286	0.036357
462.62	1.2407	48.662	0.020550	14.478	14.504	40.182	60.488	80.078	1364.4	-0.10314	142.46	0.66639	0.040065	0.35106	2.8485	46.636	50.171	117.28	35.885	51.109	502.65	27.002	15.307	0.036468
463.24	1.2578	48.624	0.020566	14.528	14.554	40.289	60.445	80.129	1362.6	-0.10237	141.97	0.66604	0.039924	0.35570	2.8113	46.643	50.179	117.19	35.963	51.264	502.74	26.850	15.329	0.036580
463.87	1.2751	48.585	0.020582	14.578	14.604	40.396	60.402	80.180	1360.7	-0.10159	141.48	0.66569	0.039783	0.36039	2.7748	46.649	50.187	117.11	36.041	51.419	502.83	26.699	15.350	0.036692
464.49	1.2925	48.546	0.020599	14.627	14.654	40.504	60.359	80.231	1358.9	-0.10082	140.99	0.66533	0.039642	0.36513	2.7387	46.655	50.195	117.02	36.119	51.576	502.91	26.549	15.371	0.036805
465.11	1.3102	48.507	0.020615	14.677	14.704	40.611	60.316	80.283	1357.0	-0.10003	140.51	0.66497	0.039501	0.36992	2.7033	46.662	50.203	116.93	36.198	51.734	503.00	26.400	15.392	0.036918
465.74	1.3280	48.468	0.020632	14.727	14.754	40.718	60.273	80.336	1355.1	-0.099241	140.03	0.66461	0.039360	0.37476	2.6684	46.668	50.211	116.85	36.277	51.892	503.08	26.252	15.413	0.037032
466.36	1.3460	48.429	0.020649	14.777	14.804	40.825	60.230	80.389	1353.2	-0.098446	139.56	0.66424	0.039219	0.37965	2.6340	46.674	50.219	116.76	36.356	52.052	503.16	26.105	15.435	0.037146
466.98	1.3642	48.390	0.020665	14.827	14.855	40.932	60.188	80.442	1351.3	-0.097646	139.09	0.66387	0.039078	0.38459	2.6002	46.680	50.227	116.68	36.435	52.213	503.24	25.959	15.456	0.037261
467.61	1.3826	48.351	0.020682	14.876	14.905	41.039	60.145	80.496	1349.4	-0.096840	138.62	0.66349	0.038936	0.38958	2.5668	46.686	50.235	116.59	36.514	52.374	503.32	25.814	15.477	0.037377
468.23	1.4012	48.311	0.020699	14.926	14.955	41.145	60.103	80.550	1347.5	-0.096028	138.15	0.66312	0.038795	0.39463	2.5340	46.692	50.242	116.51	36.594	52.537	503.40	25.669	15.498	0.037492
468.85	1.4200	48.272	0.020716	14.976	15.006	41.252	60.061	80.605	1345.5	-0.095211	137.69	0.66274	0.038653	0.39973	2.5017	46.697	50.250	116.42	36.674	52.701	503.47	25.526	15.520	0.037609
469.48	1.4390	48.232	0.020733	15.026	15.056	41.358	60.019	80.660	1343.6	-0.094388	137.23	0.66235	0.038512	0.40488	2.4699	46.703	50.257	116.34	36.754	52.865	503.54	25.384	15.541	0.037726
470.10	1.4582	48.192	0.020750	15.076	15.107	41.465	59.977	80.715	1341.7	-0.093560	136.77	0.66196	0.038370	0.41008	2.4385	46.709	50.265	116.25	36.834	53.031	503.61	25.243	15.562	0.037843
470.72	1.4775	48.152	0.020767	15.126	15.157	41.571	59.935	80.771	1339.7	-0.092726	136.32	0.66157	0.038228	0.41534	2.4076	46.714	50.272	116.17	36.914	53.198	503.68	25.102	15.583	0.037961
471.35	1.4971	48.112	0.020785	15.176	15.208	41.678	59.893	80.828	1337.8	-0.091886	135.87	0.66118	0.038086	0.42066	2.3772	46.720	50.279	116.08	36.995	53.366	503.74	24.963	15.605	0.038080
471.97	1.5169	48.072	0.020802	15.226	15.258	41.784	59.852	80.885	1335.8	-0.091040	135.42	0.66078	0.037944	0.42603	2.3473	46.725	50.286	116.00	37.076	53.535	503.81	24.824	15.626	0.038199
472.59	1.5369	48.032	0.020819	15.277	15.309	41.890	59.810	80.942	1333.8	-0.090188	134.98	0.66038	0.037802	0.43145	2.3178	46.731	50.293	115.92	37.157	53.705	503.87	24.686	15.647	0.038319
473.22	1.5571	47.992	0.020837	15.327	15.359	41.996	59.769	81.000	1331.8	-0.089330	134.54	0.65997	0.037659	0.43693	2.2887	46.736	50.299	115.83	37.238	53.876	503.93	24.549	15.669	0.038439
473.84	1.5775	47.951	0.020855	15.377	15.410	42.102	59.728	81.058	1329.9	-0.088466	134.10	0.65956	0.037517	0.44247	2.2600	46.741	50.306	115.75	37.320	54.048	503.99	24.414	15.690	0.038560
474.46	1.5981	47.911	0.020872	15.427	15.461	42.208	59.687	81.117	1327.9	-0.087596	133.66	0.65915	0.037375	0.44806	2.2318	46.746	50.313	115.66	37.402	54.221	504.04	24.279	15.711	0.038681
475.09	1.6189	47.870	0.020890	15.477	15.511	42.314	59.646	81.177	1325.9	-0.086720	133.23	0.65874	0.037232	0.45372	2.2040	46.751	50.319	115.58	37.484	54.395	504.10	24.145	15.732	0.038803
475.71	1.6399	47.829	0.020908	15.528	15.562	42.420	59.605	81.236	1323.8	-0.085837	132.80	0.65832	0.037090	0.45942	2.1766	46.756	50.326	115.50	37.566	54.571	504.15	24.011	15.754	0.038926
476.33	1.6611	47.788	0.020926	15.578	15.613	42.526	59.564	81.297	1321.8	-0.084948	132.37	0.65790	0.036947	0.46519	2.1496	46.761	50.332	115.41	37.648	54.747	504.20	23.879	15.775	0.039049
476.96	1.6826	47.747	0.020944	15.628	15.664	42.632	59.524	81.358	1319.8	-0.084053	131.95	0.65747	0.036804	0.47102	2.1231	46.766	50.338	115.33	37.731	54.925	504.25	23.748	15.796	0.039173
477.58	1.7042	47.706	0.020962	15.679	15.715	42.737	59.483	81.419	1317.8	-0.083151	131.53	0.65704	0.036661	0.47690	2.0969	46.771	50.344	115.25	37.813	55.104	504.29	23.617	15.818	0.039297
478.20	1.7261	47.665	0.020980	15.729	15.765	42.843	59.443	81.481	1315.7	-0.082243	131.11	0.65661	0.036518	0.48285	2.0710	46.775	50.350	115.17	37.896	55.283	504.34	23.487	15.839	0.039422
478.82	1.7482	47.623	0.020998	15.780	15.816	42.948	59.403	81.543	1313.7	-0.081328	130.69	0.65618	0.036375	0.48886	2.0456	46.780	50.356	115.08	37.979	55.464	504.38	23.358	15.860	0.039547
479.45	1.7705	47.582	0.021016	15.830	15.867	43.054	59.362	81.606	1311.6	-0.080407	130.27	0.65574	0.036232	0.49492	2.0205	46.784	50.362	115.00	38.063	55.647	504.42	23.230	15.882	0.039674
480.07	1.7931	47.540	0.021035	15.881	15.918	43.159	59.322	81.670	1309.6	-0.079479	129.86	0.65530	0.036089	0.50105	1.9958	46.789	50.367	114.92	38.146	55.830	504.46	23.103	15.903	0.039800
480.69	1.8158	47.499	0.021053	15.931	15.969	43.264	59.283	81.734	1307.5	-0.078544	129.45	0.65485	0.035946	0.50724	1.9715	46.793	50.373	114.83	38.230	56.015	504.49	22.977	15.924	0.039928
481.32	1.8388	47.457	0.021072	15.982	16.021	43.370	59.243	81.798	1305.4	-0.077602	129.05	0.65440	0.035802	0.51349	1.9474	46.797	50.378	114.75	38.314	56.200	504.53	22.851	15.946	0.040055
481.94	1.8620	47.415	0.021090	16.032	16.072	43.475	59.203	81.863	1303.3	-0.076653	128.64	0.65395	0.035659	0.51981	1.9238	46.801	50.384	114.67	38.398	56.387	504.56	22.727	15.967	0.040184
482.56	1.8854	47.373	0.021109	16.083	16.123	43.580	59.164	81.929	1301.2	-0.075697	128.24	0.65349	0.035515	0.52619	1.9005	46.806	50.389	114.59	38.482	56.576	504.59	22.603	15.989	0.040313
483.19	1.9091	47.331	0.021128	16.134	16.174	43.685	59.124	81.995	1299.1	-0.074734	127.84	0.65304	0.035372	0.53263	1.8775	46.810	50.394	114.51	38.567	56.765	504.62	22.480	16.010	0.040443
483.81	1.9330	47.288	0.021147	16.185	16.225	43.790	59.085	82.062	1297.0	-0.073764	127.44	0.65257	0.035228	0.53914	1.8548	46.813	50.399	114.42	38.652	56.956	504.64	22.358	16.032	0.040573
484.43	1.9571	47.246	0.021166	16.235	16.277	43.895	59.046	82.129	1294.9	-0.072787	127.05	0.65211	0.035084	0.54571	1.8325	46.817	50.404	114.34	38.736	57.148	504.67	22.236	16.053	0.040704
485.06	1.9815	47.203	0.021185	16.286	16.328	44.000	59.007	82.197	1292.8	-0.071802	126.66	0.65164	0.034941	0.55235	1.8105	46.821	50.408	114.26	38.821	57.341	504.69	22.116	16.074	0.040836
485.68	2.0061	47.161	0.021204	16.337	16.379	44.105	58.968	82.266	1290.6	-0.070810	126.27	0.65117	0.034797	0.55905	1.7887	46.825	50.413	114.18	38.907	57.535	504.71	21.996	16.096	0.040968
486.30	2.0309	47.118	0.021223	16.388	16.431	44.209	58.929	82.335	1288.5	-0.069811	125.88	0.65069	0.034653	0.56582	1.7673	46.828	50.418	114.10	38.992	57.731	504.72	21.877	16.117	0.041101
486.93	2.0560	47.075	0.021243	16.439	16.482	44.314	58.891	82.404	1286.4	-0.068804	125.50	0.65022	0.034509	0.57266	1.7462	46.832	50.422	114.02	39.078	57.928	504.74	21.759	16.139	0.041235
487.55	2.0813	47.032	0.021262	16.490	16.534	44.419	58.852	82.475	1284.2	-0.067789	125.11	0.64974	0.034365	0.57956	1.7254	46.835	50.426	113.93	39.164	58.127	504.75	21.641	16.160	0.041369
488.17	2.1068	46.989	0.021282	16.541	16.585	44.523	58.814	82.545	1282.0	-0.066766	124.73	0.64925	0.034220	0.58654	1.7049	46.839	50.431	113.85	39.250	58.326	504.76	21.525	16.182	0.041504
488.80	2.1326	46.945	0.021301	16.592	16.637	44.628	58.775	82.617	1279.9	-0.065736	124.35	0.64876	0.034076	0.59358	1.6847	46.842	50.435	113.77	39.336	58.527	504.77	21.409	16.203	0.041640
489.42	2.1586	46.902	0.021321	16.643	16.689	44.732	58.737	82.689	1277.7	-0.064698	123.98	0.64827	0.033932	0.60069	1.6647	46.845	50.439	113.69	39.423	58.730	504.78	21.294	16.225	0.041776
490.04	2.1849	46.858	0.021341	16.694	16.740	44.837	58.699	82.762	1275.5	-0.063652	123.60	0.64778	0.033787	0.60788	1.6451	46.848	50.442	113.61	39.509	58.933	504.78	21.179	16.247	0.041913
490.67	2.2114	46.815	0.021361	16.745	16.792	44.941	58.661	82.835	1273.3	-0.062598	123.23	0.64728	0.033643	0.61513	1.6257	46.851	50.446	113.53	39.596	59.139	504.78	21.066	16.268	0.042051
491.29	2.2382	46.771	0.021381	16.796	16.844	45.045	58.623	82.909	1271.1	-0.061535	122.86	0.64678	0.033499	0.62246	1.6065	46.854	50.450	113.45	39.683	59.345	504.78	20.953	16.290	0.042189
491.91	2.2652	46.727	0.021401	16.847	16.896	45.150	58.586	82.984	1268.9	-0.060465	122.49	0.64627	0.033354	0.62985	1.5877	46.857	50.453	113.37	39.770	59.553	504.78	20.841	16.311	0.042328
492.54	2.2925	46.683	0.021421	16.899	16.948	45.254	58.548	83.059	1266.7	-0.059386	122.13	0.64577	0.033209	0.63732	1.5691	46.860	50.457	113.29	39.858	59.763	504.78	20.729	16.333	0.042468
493.16	2.3200	46.639	0.021441	16.950	17.000	45.358	58.511	83.135	1264.5	-0.058298	121.76	0.64526	0.033065	0.64486	1.5507	46.862	50.460	113.21	39.945	59.973	504.77	20.618	16.355	0.042608
493.78	2.3478	46.594	0.021462	17.001	17.052	45.462	58.474	83.211	1262.2	-0.057203	121.40	0.64474	0.032920	0.65248	1.5326	46.865	50.463	113.13	40.033	60.186	504.76	20.508	16.376	0.042749
494.41	2.3758	46.550	0.021482	17.053	17.104	45.566	58.436	83.289	1260.0	-0.056098	121.04	0.64422	0.032775	0.66017	1.5148	46.867	50.466	113.05	40.121	60.400	504.75	20.399	16.398	0.042891
495.03	2.4041	46.505	0.021503	17.104	17.156	45.670	58.399	83.367	1257.8	-0.054985	120.68	0.64370	0.032630	0.66794	1.4971	46.870	50.469	112.97	40.209	60.615	504.73	20.291	16.420	0.043034
495.65	2.4326	46.461	0.021524	17.155	17.208	45.774	58.362	83.445	1255.5	-0.053863	120.33	0.64318	0.032485	0.67578	1.4798	46.872	50.472	112.89	40.298	60.832	504.72	20.183	16.442	0.043177
496.28	2.4615	46.416	0.021544	17.207	17.260	45.878	58.326	83.525	1253.2	-0.052732	119.97	0.64265	0.032340	0.68370	1.4626	46.874	50.474	112.81	40.386	61.050	504.70	20.076	16.463	0.043321
496.90	2.4905	46.371	0.021565	17.258	17.312	45.982	58.289	83.605	1251.0	-0.051592	119.62	0.64212	0.032195	0.69169	1.4457	46.876	50.477	112.73	40.475	61.270	504.68	19.970	16.485	0.043466
497.52	2.5199	46.326	0.021586	17.310	17.364	46.086	58.253	83.685	1248.7	-0.050443	119.27	0.64159	0.032050	0.69977	1.4290	46.878	50.479	112.65	40.564	61.492	504.66	19.864	16.507	0.043611
498.14	2.5495	46.280	0.021607	17.362	17.417	46.190	58.216	83.767	1246.4	-0.049284	118.92	0.64105	0.031905	0.70792	1.4126	46.880	50.481	112.57	40.653	61.715	504.63	19.759	16.529	0.043757
498.77	2.5794	46.235	0.021629	17.413	17.469	46.293	58.180	83.849	1244.1	-0.048117	118.58	0.64051	0.031759	0.71615	1.3964	46.882	50.484	112.49	40.743	61.939	504.61	19.655	16.551	0.043904
499.39	2.6095	46.190	0.021650	17.465	17.521	46.397	58.144	83.932	1241.8	-0.046940	118.23	0.63997	0.031614	0.72446	1.3803	46.884	50.486	112.41	40.832	62.166	504.58	19.551	16.572	0.044052
500.01	2.6399	46.144	0.021671	17.517	17.574	46.501	58.108	84.015	1239.5	-0.045753	117.89	0.63943	0.031469	0.73285	1.3645	46.885	50.487	112.33	40.922	62.394	504.55	19.448	16.594	0.044201
500.64	2.6706	46.098	0.021693	17.568	17.626	46.604	58.072	84.100	1237.2	-0.044557	117.55	0.63888	0.031323	0.74132	1.3489	46.887	50.489	112.25	41.012	62.623	504.51	19.346	16.616	0.044350
501.26	2.7016	46.052	0.021715	17.620	17.679	46.708	58.036	84.185	1234.9	-0.043351	117.21	0.63832	0.031178	0.74987	1.3336	46.888	50.491	112.17	41.103	62.855	504.47	19.244	16.638	0.044500
501.88	2.7328	46.006	0.021736	17.672	17.732	46.811	58.000	84.271	1232.5	-0.042135	116.87	0.63777	0.031032	0.75851	1.3184	46.889	50.492	112.09	41.193	63.088	504.44	19.143	16.660	0.044651
502.51	2.7643	45.960	0.021758	17.724	17.784	46.915	57.965	84.358	1230.2	-0.040909	116.54	0.63721	0.030887	0.76723	1.3034	46.891	50.494	112.01	41.284	63.322	504.39	19.043	16.682	0.044803
503.13	2.7961	45.914	0.021780	17.776	17.837	47.018	57.930	84.445	1227.8	-0.039673	116.20	0.63665	0.030741	0.77603	1.2886	46.892	50.495	111.93	41.375	63.559	504.35	18.943	16.704	0.044955
503.75	2.8282	45.867	0.021802	17.828	17.890	47.122	57.894	84.533	1225.5	-0.038426	115.87	0.63608	0.030595	0.78492	1.2740	46.893	50.496	111.85	41.466	63.797	504.31	18.844	16.726	0.045109
504.38	2.8605	45.820	0.021824	17.880	17.942	47.225	57.859	84.622	1223.1	-0.037170	115.54	0.63551	0.030450	0.79389	1.2596	46.894	50.497	111.77	41.557	64.037	504.26	18.746	16.748	0.045263
505.00	2.8932	45.774	0.021847	17.932	17.995	47.328	57.824	84.712	1220.8	-0.035903	115.21	0.63494	0.030304	0.80295	1.2454	46.895	50.498	111.69	41.648	64.279	504.21	18.648	16.770	0.045418
505.62	2.9261	45.727	0.021869	17.984	18.048	47.432	57.789	84.803	1218.4	-0.034625	114.88	0.63437	0.030158	0.81210	1.2314	46.895	50.498	111.61	41.740	64.523	504.15	18.551	16.792	0.045573
506.25	2.9593	45.680	0.021892	18.036	18.101	47.535	57.755	84.894	1216.0	-0.033336	114.56	0.63379	0.030012	0.82133	1.2175	46.896	50.499	111.53	41.832	64.769	504.10	18.454	16.815	0.045730
506.87	2.9928	45.633	0.021914	18.089	18.154	47.638	57.720	84.987	1213.6	-0.032037	114.24	0.63321	0.029866	0.83065	1.2039	46.897	50.499	111.45	41.924	65.017	504.04	18.359	16.837	0.045888
507.49	3.0266	45.585	0.021937	18.141	18.207	47.741	57.686	85.080	1211.2	-0.030727	113.91	0.63262	0.029720	0.84007	1.1904	46.897	50.500	111.37	42.017	65.266	503.98	18.263	16.859	0.046046
508.12	3.0607	45.538	0.021960	18.193	18.260	47.845	57.651	85.174	1208.8	-0.029405	113.59	0.63203	0.029574	0.84957	1.1771	46.897	50.500	111.29	42.109	65.517	503.92	18.169	16.881	0.046205
508.74	3.0951	45.490	0.021983	18.246	18.314	47.948	57.617	85.269	1206.4	-0.028073	113.27	0.63144	0.029428	0.85916	1.1639	46.897	50.500	111.21	42.202	65.771	503.85	18.075	16.904	0.046365
509.36	3.1297	45.442	0.022006	18.298	18.367	48.051	57.583	85.365	1203.9	-0.026729	112.95	0.63085	0.029282	0.86884	1.1510	46.898	50.500	111.14	42.295	66.026	503.78	17.981	16.926	0.046526
509.99	3.1647	45.394	0.022029	18.351	18.420	48.154	57.549	85.462	1201.5	-0.025373	112.64	0.63025	0.029136	0.87862	1.1381	46.898	50.500	111.06	42.389	66.284	503.71	17.888	16.948	0.046688
510.61	3.2000	45.346	0.022053	18.403	18.474	48.257	57.515	85.559	1199.1	-0.024006	112.32	0.62965	0.028990	0.88849	1.1255	46.898	50.499	110.98	42.482	66.543	503.64	17.796	16.971	0.046851
511.23	3.2356	45.298	0.022076	18.456	18.527	48.360	57.482	85.658	1196.6	-0.022627	112.01	0.62905	0.028844	0.89846	1.1130	46.897	50.499	110.90	42.576	66.805	503.57	17.704	16.993	0.047015
511.86	3.2714	45.250	0.022100	18.508	18.581	48.463	57.448	85.757	1194.2	-0.021236	111.70	0.62844	0.028698	0.90852	1.1007	46.897	50.498	110.82	42.670	67.069	503.49	17.613	17.015	0.047180
512.48	3.3076	45.201	0.022123	18.561	18.634	48.566	57.415	85.858	1191.7	-0.019833	111.39	0.62783	0.028551	0.91867	1.0885	46.897	50.497	110.74	42.764	67.334	503.41	17.523	17.038	0.047345
513.10	3.3441	45.152	0.022147	18.614	18.688	48.669	57.382	85.959	1189.2	-0.018417	111.08	0.62722	0.028405	0.92892	1.0765	46.896	50.496	110.66	42.858	67.602	503.32	17.433	17.060	0.047512
513.73	3.3809	45.104	0.022171	18.666	18.741	48.772	57.349	86.062	1186.7	-0.016989	110.77	0.62660	0.028259	0.93927	1.0647	46.895	50.495	110.58	42.953	67.873	503.24	17.344	17.083	0.047679
514.35	3.4180	45.055	0.022195	18.719	18.795	48.875	57.316	86.165	1184.3	-0.015549	110.47	0.62598	0.028112	0.94972	1.0529	46.895	50.494	110.50	43.048	68.145	503.15	17.255	17.106	0.047848
514.97	3.4554	45.005	0.022220	18.772	18.849	48.978	57.283	86.269	1181.8	-0.014096	110.16	0.62536	0.027966	0.96027	1.0414	46.894	50.492	110.42	43.143	68.420	503.06	17.167	17.128	0.048017
515.60	3.4932	44.956	0.022244	18.825	18.903	49.081	57.250	86.375	1179.3	-0.012630	109.86	0.62473	0.027820	0.97092	1.0300	46.893	50.491	110.35	43.239	68.697	502.97	17.079	17.151	0.048188
516.22	3.5312	44.907	0.022268	18.878	18.957	49.183	57.218	86.481	1176.7	-0.011151	109.56	0.62410	0.027673	0.98167	1.0187	46.892	50.489	110.27	43.334	68.976	502.87	16.992	17.174	0.048359
516.84	3.5696	44.857	0.022293	18.931	19.011	49.286	57.185	86.588	1174.2	-0.0096586	109.26	0.62347	0.027527	0.99252	1.0075	46.891	50.487	110.19	43.430	69.258	502.77	16.905	17.196	0.048531
517.46	3.6083	44.807	0.022318	18.984	19.065	49.389	57.153	86.697	1171.7	-0.0081529	108.96	0.62283	0.027380	1.0035	0.99654	46.889	50.485	110.11	43.527	69.542	502.67	16.819	17.219	0.048705
518.09	3.6473	44.757	0.022343	19.037	19.119	49.492	57.121	86.806	1169.2	-0.0066337	108.66	0.62219	0.027234	1.0145	0.98568	46.888	50.483	110.03	43.623	69.829	502.57	16.734	17.242	0.048879
518.71	3.6866	44.707	0.022368	19.090	19.173	49.595	57.089	86.917	1166.6	-0.0051008	108.36	0.62155	0.027087	1.0257	0.97495	46.886	50.481	109.95	43.720	70.118	502.46	16.649	17.265	0.049055
519.33	3.7263	44.657	0.022393	19.144	19.227	49.697	57.057	87.029	1164.1	-0.0035540	108.07	0.62091	0.026941	1.0370	0.96435	46.885	50.478	109.87	43.817	70.409	502.35	16.564	17.288	0.049232
519.96	3.7662	44.606	0.022418	19.197	19.281	49.800	57.025	87.141	1161.5	-0.0019931	107.77	0.62026	0.026794	1.0483	0.95389	46.883	50.475	109.79	43.914	70.703	502.24	16.480	17.311	0.049409
520.58	3.8065	44.556	0.022444	19.250	19.336	49.903	56.994	87.255	1158.9	-0.00041788	107.48	0.61961	0.026647	1.0598	0.94355	46.881	50.473	109.71	44.011	71.000	502.12	16.397	17.334	0.049588
521.20	3.8472	44.505	0.022469	19.304	19.390	50.005	56.962	87.370	1156.3	0.0011718	107.19	0.61895	0.026501	1.0714	0.93334	46.879	50.470	109.64	44.109	71.299	502.01	16.314	17.357	0.049768
521.83	3.8881	44.454	0.022495	19.357	19.445	50.108	56.931	87.486	1153.8	0.0027761	106.90	0.61829	0.026354	1.0831	0.92326	46.877	50.467	109.56	44.207	71.601	501.89	16.232	17.380	0.049949
522.45	3.9294	44.403	0.022521	19.411	19.499	50.211	56.900	87.604	1151.2	0.0043952	106.61	0.61763	0.026208	1.0949	0.91329	46.875	50.463	109.48	44.305	71.906	501.76	16.150	17.403	0.050131
523.07	3.9711	44.352	0.022547	19.464	19.554	50.314	56.869	87.722	1148.6	0.0060294	106.32	0.61697	0.026061	1.1069	0.90345	46.872	50.460	109.40	44.404	72.213	501.64	16.068	17.426	0.050314
523.70	4.0130	44.300	0.022573	19.518	19.608	50.416	56.838	87.842	1146.0	0.0076788	106.03	0.61630	0.025914	1.1189	0.89373	46.870	50.456	109.32	44.503	72.523	501.51	15.988	17.450	0.050498
524.32	4.0553	44.249	0.022600	19.572	19.663	50.519	56.808	87.963	1143.3	0.0093436	105.75	0.61563	0.025768	1.1311	0.88413	46.867	50.453	109.24	44.602	72.836	501.38	15.907	17.473	0.050684
524.94	4.0980	44.197	0.022626	19.625	19.718	50.622	56.777	88.085	1140.7	0.011024	105.46	0.61496	0.025621	1.1433	0.87464	46.864	50.449	109.16	44.701	73.152	501.24	15.827	17.496	0.050871
525.57	4.1410	44.145	0.022653	19.679	19.773	50.724	56.747	88.208	1138.1	0.012720	105.18	0.61428	0.025474	1.1557	0.86527	46.862	50.445	109.08	44.801	73.471	501.11	15.748	17.520	0.051058
526.19	4.1843	44.093	0.022680	19.733	19.828	50.827	56.717	88.333	1135.4	0.014433	104.90	0.61360	0.025327	1.1682	0.85600	46.859	50.440	109.00	44.901	73.793	500.97	15.669	17.543	0.051248
526.81	4.2280	44.040	0.022706	19.787	19.883	50.929	56.687	88.459	1132.8	0.016162	104.61	0.61291	0.025181	1.1808	0.84685	46.856	50.436	108.93	45.001	74.118	500.82	15.591	17.567	0.051438
527.44	4.2720	43.988	0.022734	19.841	19.938	51.032	56.657	88.586	1130.1	0.017907	104.33	0.61223	0.025034	1.1936	0.83781	46.852	50.431	108.85	45.102	74.445	500.68	15.513	17.590	0.051629
528.06	4.3164	43.935	0.022761	19.895	19.993	51.135	56.627	88.715	1127.4	0.019669	104.05	0.61154	0.024887	1.2064	0.82888	46.849	50.427	108.77	45.203	74.776	500.53	15.435	17.614	0.051822
528.68	4.3612	43.882	0.022788	19.949	20.048	51.237	56.598	88.845	1124.8	0.021448	103.78	0.61084	0.024741	1.2194	0.82005	46.845	50.422	108.69	45.304	75.110	500.38	15.358	17.638	0.052016
529.31	4.4062	43.829	0.022816	20.003	20.104	51.340	56.568	88.976	1122.1	0.023244	103.50	0.61015	0.024594	1.2325	0.81133	46.842	50.417	108.61	45.405	75.448	500.22	15.281	17.662	0.052212
529.93	4.4517	43.776	0.022844	20.057	20.159	51.443	56.539	89.109	1119.4	0.025058	103.22	0.60945	0.024447	1.2458	0.80271	46.838	50.411	108.53	45.507	75.788	500.07	15.205	17.685	0.052408
530.55	4.4975	43.723	0.022871	20.112	20.215	51.545	56.510	89.243	1116.7	0.026889	102.95	0.60875	0.024300	1.2591	0.79419	46.834	50.406	108.45	45.609	76.132	499.91	15.130	17.709	0.052606
531.18	4.5436	43.669	0.022900	20.166	20.270	51.648	56.481	89.378	1114.0	0.028738	102.67	0.60804	0.024154	1.2726	0.78578	46.830	50.400	108.37	45.712	76.479	499.74	15.054	17.733	0.052806
531.80	4.5902	43.615	0.022928	20.220	20.326	51.751	56.452	89.515	1111.3	0.030606	102.40	0.60733	0.024007	1.2862	0.77746	46.826	50.395	108.29	45.814	76.830	499.58	14.979	17.757	0.053006
532.42	4.6371	43.561	0.022956	20.275	20.381	51.853	56.424	89.654	1108.5	0.032491	102.13	0.60662	0.023860	1.3000	0.76924	46.822	50.389	108.21	45.917	77.184	499.41	14.905	17.781	0.053209
533.05	4.6843	43.507	0.022985	20.330	20.437	51.956	56.395	89.794	1105.8	0.034396	101.86	0.60590	0.023713	1.3139	0.76112	46.817	50.383	108.13	46.021	77.541	499.24	14.831	17.805	0.053412
533.67	4.7319	43.453	0.023014	20.384	20.493	52.059	56.367	89.935	1103.0	0.036320	101.59	0.60518	0.023567	1.3279	0.75309	46.813	50.376	108.05	46.124	77.902	499.06	14.758	17.830	0.053617
534.29	4.7799	43.398	0.023043	20.439	20.549	52.161	56.339	90.078	1100.3	0.038262	101.32	0.60446	0.023420	1.3420	0.74515	46.808	50.370	107.97	46.228	78.267	498.88	14.685	17.854	0.053823
534.92	4.8283	43.343	0.023072	20.494	20.605	52.264	56.311	90.223	1097.5	0.040225	101.05	0.60373	0.023273	1.3563	0.73731	46.803	50.363	107.90	46.333	78.636	498.70	14.612	17.878	0.054031
535.54	4.8770	43.288	0.023101	20.548	20.661	52.367	56.283	90.369	1094.8	0.042207	100.78	0.60300	0.023127	1.3707	0.72955	46.798	50.356	107.82	46.437	79.008	498.52	14.540	17.903	0.054241
536.16	4.9261	43.233	0.023130	20.603	20.717	52.469	56.255	90.517	1092.0	0.044209	100.52	0.60227	0.022980	1.3853	0.72189	46.793	50.349	107.74	46.542	79.384	498.33	14.468	17.927	0.054451
536.78	4.9756	43.178	0.023160	20.658	20.774	52.572	56.228	90.666	1089.2	0.046232	100.25	0.60154	0.022833	1.3999	0.71431	46.788	50.342	107.66	46.648	79.764	498.14	14.397	17.952	0.054664
537.41	5.0254	43.122	0.023190	20.713	20.830	52.675	56.201	90.817	1086.4	0.048275	99.986	0.60080	0.022687	1.4148	0.70683	46.782	50.335	107.58	46.753	80.148	497.94	14.326	17.977	0.054878
538.03	5.0757	43.066	0.023220	20.768	20.886	52.778	56.174	90.970	1083.6	0.050340	99.722	0.60006	0.022540	1.4298	0.69942	46.777	50.327	107.50	46.859	80.536	497.75	14.255	18.001	0.055093
538.65	5.1263	43.011	0.023250	20.824	20.943	52.880	56.147	91.124	1080.8	0.052425	99.459	0.59931	0.022394	1.4449	0.69210	46.771	50.319	107.42	46.966	80.928	497.55	14.185	18.026	0.055310
539.28	5.1773	42.954	0.023281	20.879	20.999	52.983	56.120	91.281	1077.9	0.054533	99.196	0.59856	0.022247	1.4601	0.68487	46.765	50.311	107.34	47.072	81.324	497.34	14.115	18.051	0.055529
539.90	5.2287	42.898	0.023311	20.934	21.056	53.086	56.094	91.439	1075.1	0.056662	98.935	0.59781	0.022100	1.4755	0.67772	46.759	50.303	107.26	47.180	81.725	497.13	14.046	18.076	0.055749
540.52	5.2805	42.841	0.023342	20.990	21.113	53.189	56.067	91.598	1072.2	0.058813	98.674	0.59705	0.021954	1.4911	0.67065	46.753	50.295	107.18	47.287	82.129	496.92	13.977	18.101	0.055971
541.15	5.3327	42.785	0.023373	21.045	21.170	53.292	56.041	91.760	1069.4	0.060987	98.415	0.59630	0.021807	1.5068	0.66366	46.747	50.286	107.10	47.395	82.539	496.71	13.908	18.126	0.056195
541.77	5.3852	42.728	0.023404	21.101	21.227	53.395	56.015	91.924	1066.5	0.063185	98.156	0.59553	0.021661	1.5227	0.65674	46.740	50.277	107.02	47.503	82.952	496.49	13.840	18.151	0.056420
542.39	5.4382	42.670	0.023435	21.156	21.284	53.497	55.989	92.089	1063.7	0.065405	97.897	0.59477	0.021514	1.5387	0.64991	46.734	50.268	106.94	47.612	83.370	496.27	13.772	18.177	0.056648
543.02	5.4916	42.613	0.023467	21.212	21.341	53.600	55.964	92.257	1060.8	0.067649	97.640	0.59400	0.021368	1.5548	0.64315	46.727	50.259	106.86	47.720	83.793	496.05	13.704	18.202	0.056877
543.64	5.5453	42.555	0.023499	21.268	21.398	53.703	55.938	92.426	1057.9	0.069917	97.383	0.59323	0.021222	1.5712	0.63647	46.720	50.250	106.77	47.830	84.221	495.82	13.637	18.228	0.057107
544.26	5.5995	42.497	0.023531	21.324	21.455	53.806	55.913	92.597	1055.0	0.072210	97.127	0.59245	0.021075	1.5876	0.62986	46.713	50.240	106.69	47.939	84.653	495.59	13.571	18.253	0.057340
544.89	5.6540	42.439	0.023563	21.379	21.513	53.909	55.888	92.771	1052.1	0.074527	96.872	0.59167	0.020929	1.6043	0.62333	46.706	50.230	106.61	48.050	85.090	495.36	13.504	18.279	0.057574
545.51	5.7090	42.381	0.023596	21.435	21.570	54.012	55.863	92.946	1049.2	0.076870	96.617	0.59089	0.020783	1.6211	0.61687	46.699	50.220	106.53	48.160	85.532	495.12	13.438	18.305	0.057811
546.13	5.7644	42.322	0.023628	21.492	21.628	54.116	55.839	93.124	1046.2	0.079238	96.364	0.59011	0.020636	1.6381	0.61048	46.691	50.210	106.45	48.271	85.979	494.88	13.373	18.331	0.058049
546.76	5.8202	42.264	0.023661	21.548	21.685	54.219	55.814	93.304	1043.3	0.081632	96.110	0.58932	0.020490	1.6552	0.60416	46.683	50.200	106.37	48.382	86.432	494.64	13.307	18.357	0.058290
547.38	5.8764	42.204	0.023694	21.604	21.743	54.322	55.790	93.485	1040.4	0.084052	95.858	0.58852	0.020344	1.6725	0.59791	46.675	50.189	106.29	48.494	86.889	494.39	13.242	18.383	0.058532
548.00	5.9330	42.145	0.023727	21.660	21.801	54.425	55.766	93.670	1037.4	0.086500	95.606	0.58773	0.020198	1.6900	0.59173	46.667	50.178	106.21	48.606	87.352	494.14	13.178	18.409	0.058776
548.63	5.9900	42.086	0.023761	21.717	21.859	54.528	55.742	93.856	1034.4	0.088974	95.355	0.58693	0.020052	1.7076	0.58562	46.659	50.167	106.13	48.718	87.820	493.88	13.113	18.435	0.059023
549.25	6.0474	42.026	0.023795	21.773	21.917	54.632	55.718	94.045	1031.5	0.091476	95.104	0.58613	0.019906	1.7254	0.57958	46.651	50.156	106.04	48.831	88.294	493.63	13.050	18.462	0.059271
549.87	6.1053	41.966	0.023829	21.830	21.975	54.735	55.695	94.236	1028.5	0.094007	94.854	0.58532	0.019760	1.7434	0.57360	46.642	50.144	105.96	48.945	88.774	493.36	12.986	18.488	0.059522
550.50	6.1636	41.906	0.023863	21.886	22.034	54.838	55.672	94.429	1025.5	0.096566	94.605	0.58451	0.019614	1.7615	0.56768	46.634	50.133	105.88	49.058	89.259	493.10	12.923	18.515	0.059775
551.12	6.2223	41.845	0.023898	21.943	22.092	54.942	55.649	94.625	1022.5	0.099154	94.356	0.58370	0.019468	1.7799	0.56183	46.625	50.121	105.80	49.172	89.750	492.83	12.860	18.542	0.060030
551.74	6.2814	41.785	0.023932	22.000	22.150	55.045	55.626	94.824	1019.5	0.10177	94.108	0.58288	0.019322	1.7984	0.55605	46.616	50.108	105.72	49.287	90.248	492.56	12.797	18.568	0.060288
552.37	6.3410	41.724	0.023967	22.057	22.209	55.149	55.604	95.025	1016.4	0.10442	93.861	0.58206	0.019176	1.8171	0.55032	46.606	50.096	105.64	49.402	90.751	492.28	12.735	18.595	0.060547
552.99	6.4010	41.663	0.024002	22.114	22.268	55.252	55.581	95.228	1013.4	0.10710	93.614	0.58124	0.019031	1.8360	0.54466	46.597	50.083	105.55	49.518	91.260	492.00	12.673	18.622	0.060809
553.61	6.4614	41.601	0.024038	22.171	22.326	55.356	55.559	95.435	1010.3	0.10981	93.367	0.58041	0.018885	1.8551	0.53906	46.587	50.070	105.47	49.633	91.776	491.71	12.611	18.650	0.061074
554.24	6.5223	41.539	0.024074	22.228	22.385	55.460	55.537	95.643	1007.3	0.11255	93.121	0.57958	0.018739	1.8743	0.53352	46.578	50.057	105.39	49.750	92.299	491.43	12.550	18.677	0.061341
554.86	6.5836	41.477	0.024110	22.286	22.444	55.563	55.516	95.855	1004.2	0.11532	92.876	0.57875	0.018594	1.8938	0.52804	46.568	50.044	105.31	49.867	92.828	491.13	12.489	18.705	0.061610
555.48	6.6453	41.415	0.024146	22.343	22.503	55.667	55.494	96.069	1001.1	0.11813	92.631	0.57791	0.018448	1.9135	0.52261	46.558	50.030	105.22	49.984	93.363	490.84	12.428	18.732	0.061882
556.10	6.7075	41.353	0.024182	22.400	22.563	55.771	55.473	96.287	998.06	0.12096	92.387	0.57707	0.018303	1.9333	0.51725	46.547	50.017	105.14	50.102	93.906	490.54	12.368	18.760	0.062157
556.73	6.7701	41.290	0.024219	22.458	22.622	55.875	55.452	96.507	994.97	0.12384	92.143	0.57623	0.018158	1.9534	0.51194	46.537	50.003	105.06	50.220	94.455	490.24	12.308	18.788	0.062434
557.35	6.8332	41.227	0.024256	22.516	22.681	55.979	55.432	96.730	991.86	0.12674	91.900	0.57538	0.018012	1.9736	0.50669	46.526	49.988	104.97	50.338	95.012	489.93	12.248	18.816	0.062714
557.97	6.8967	41.164	0.024293	22.573	22.741	56.083	55.411	96.956	988.74	0.12968	91.657	0.57453	0.017867	1.9941	0.50149	46.515	49.974	104.89	50.458	95.576	489.62	12.188	18.844	0.062996
558.60	6.9607	41.100	0.024331	22.631	22.801	56.187	55.391	97.185	985.61	0.13266	91.414	0.57367	0.017722	2.0147	0.49635	46.504	49.959	104.81	50.577	96.147	489.30	12.129	18.872	0.063282
559.22	7.0251	41.036	0.024369	22.689	22.860	56.291	55.371	97.418	982.48	0.13568	91.172	0.57281	0.017577	2.0356	0.49126	46.493	49.944	104.72	50.697	96.726	488.98	12.070	18.901	0.063570
559.84	7.0900	40.972	0.024407	22.747	22.920	56.396	55.352	97.653	979.33	0.13873	90.931	0.57195	0.017432	2.0567	0.48622	46.481	49.928	104.64	50.818	97.313	488.66	12.012	18.929	0.063861
560.47	7.1553	40.908	0.024445	22.806	22.980	56.500	55.332	97.892	976.17	0.14181	90.690	0.57109	0.017287	2.0780	0.48124	46.469	49.913	104.55	50.939	97.908	488.33	11.953	18.958	0.064155
561.09	7.2211	40.843	0.024484	22.864	23.041	56.604	55.313	98.135	973.00	0.14494	90.449	0.57022	0.017142	2.0995	0.47631	46.458	49.897	104.47	51.060	98.511	488.00	11.895	18.987	0.064452
561.71	7.2873	40.778	0.024523	22.922	23.101	56.709	55.294	98.380	969.81	0.14811	90.209	0.56934	0.016998	2.1212	0.47143	46.445	49.881	104.38	51.183	99.122	487.67	11.837	19.016	0.064753
562.34	7.3541	40.713	0.024562	22.981	23.161	56.813	55.276	98.629	966.62	0.15131	89.969	0.56847	0.016853	2.1432	0.46660	46.433	49.865	104.30	51.305	99.741	487.33	11.780	19.045	0.065056
562.96	7.4212	40.647	0.024602	23.039	23.222	56.918	55.257	98.882	963.42	0.15455	89.729	0.56759	0.016708	2.1653	0.46182	46.421	49.848	104.21	51.428	100.37	486.98	11.722	19.074	0.065363
563.58	7.4889	40.581	0.024642	23.098	23.282	57.023	55.239	99.138	960.20	0.15784	89.490	0.56670	0.016564	2.1877	0.45709	46.408	49.831	104.13	51.552	101.01	486.63	11.665	19.104	0.065672
564.21	7.5570	40.515	0.024682	23.157	23.343	57.128	55.221	99.398	956.98	0.16117	89.251	0.56581	0.016420	2.2104	0.45241	46.395	49.814	104.04	51.676	101.65	486.28	11.609	19.133	0.065986
564.83	7.6256	40.448	0.024723	23.216	23.404	57.232	55.204	99.662	953.74	0.16454	89.013	0.56492	0.016275	2.2333	0.44778	46.382	49.796	103.96	51.801	102.31	485.92	11.552	19.163	0.066302
565.45	7.6947	40.382	0.024764	23.275	23.465	57.337	55.187	99.930	950.49	0.16795	88.775	0.56403	0.016131	2.2564	0.44319	46.368	49.779	103.87	51.926	102.97	485.56	11.496	19.193	0.066623
566.08	7.7642	40.314	0.024805	23.334	23.526	57.443	55.170	100.20	947.23	0.17141	88.537	0.56313	0.015987	2.2797	0.43865	46.355	49.761	103.79	52.052	103.65	485.20	11.440	19.223	0.066946
566.70	7.8343	40.247	0.024847	23.393	23.588	57.548	55.153	100.48	943.96	0.17491	88.299	0.56222	0.015843	2.3033	0.43416	46.341	49.742	103.70	52.178	104.33	484.83	11.384	19.254	0.067274
567.32	7.9048	40.179	0.024888	23.452	23.649	57.653	55.137	100.76	940.67	0.17846	88.062	0.56132	0.015699	2.3272	0.42971	46.327	49.724	103.61	52.305	105.02	484.45	11.329	19.284	0.067605
567.95	7.9758	40.111	0.024931	23.512	23.711	57.758	55.121	101.04	937.38	0.18206	87.825	0.56041	0.015555	2.3513	0.42531	46.313	49.705	103.53	52.432	105.73	484.07	11.273	19.315	0.067940
568.57	8.0473	40.043	0.024973	23.572	23.773	57.864	55.105	101.33	934.07	0.18570	87.588	0.55949	0.015412	2.3756	0.42095	46.298	49.686	103.44	52.560	106.44	483.69	11.218	19.346	0.068279
569.19	8.1193	39.974	0.025016	23.631	23.834	57.970	55.090	101.62	930.75	0.18939	87.352	0.55857	0.015268	2.4002	0.41663	46.284	49.666	103.35	52.689	107.17	483.30	11.164	19.377	0.068622
569.82	8.1917	39.905	0.025060	23.691	23.896	58.075	55.075	101.92	927.42	0.19313	87.116	0.55765	0.015125	2.4251	0.41236	46.269	49.646	103.27	52.818	107.91	482.91	11.109	19.409	0.068969
570.44	8.2647	39.836	0.025103	23.751	23.959	58.181	55.060	102.22	924.08	0.19692	86.880	0.55672	0.014982	2.4502	0.40813	46.253	49.626	103.18	52.948	108.66	482.51	11.055	19.440	0.069320
571.06	8.3382	39.766	0.025147	23.811	24.021	58.287	55.046	102.53	920.73	0.20077	86.644	0.55579	0.014838	2.4756	0.40394	46.238	49.606	103.09	53.078	109.42	482.11	11.001	19.472	0.069676
571.69	8.4121	39.696	0.025192	23.871	24.083	58.393	55.032	102.84	917.36	0.20466	86.408	0.55486	0.014695	2.5013	0.39979	46.222	49.585	103.00	53.209	110.19	481.70	10.947	19.504	0.070036
572.31	8.4866	39.625	0.025236	23.932	24.146	58.499	55.018	103.16	913.98	0.20861	86.173	0.55392	0.014552	2.5272	0.39569	46.206	49.564	102.91	53.341	110.97	481.29	10.893	19.536	0.070400
572.93	8.5616	39.554	0.025282	23.992	24.209	58.605	55.005	103.48	910.59	0.21261	85.938	0.55298	0.014410	2.5535	0.39162	46.190	49.543	102.82	53.473	111.77	480.88	10.840	19.568	0.070770
573.56	8.6370	39.483	0.025327	24.053	24.272	58.712	54.992	103.81	907.19	0.21667	85.703	0.55203	0.014267	2.5800	0.38760	46.174	49.521	102.74	53.605	112.58	480.45	10.787	19.601	0.071143
574.18	8.7130	39.412	0.025373	24.114	24.335	58.818	54.980	104.14	903.77	0.22079	85.468	0.55108	0.014124	2.6068	0.38361	46.157	49.499	102.65	53.739	113.40	480.03	10.734	19.634	0.071522
574.80	8.7895	39.340	0.025420	24.174	24.398	58.925	54.967	104.48	900.34	0.22496	85.233	0.55012	0.013982	2.6339	0.37967	46.140	49.477	102.56	53.873	114.24	479.60	10.681	19.667	0.071905
575.42	8.8666	39.267	0.025466	24.235	24.461	59.032	54.956	104.82	896.90	0.22919	84.998	0.54917	0.013840	2.6613	0.37576	46.123	49.454	102.47	54.008	115.09	479.16	10.628	19.700	0.072294
576.05	8.9441	39.195	0.025514	24.297	24.525	59.139	54.944	105.17	893.44	0.23349	84.764	0.54820	0.013697	2.6890	0.37189	46.105	49.432	102.38	54.143	115.95	478.72	10.576	19.734	0.072688
576.67	9.0221	39.122	0.025561	24.358	24.589	59.246	54.933	105.53	889.98	0.23784	84.529	0.54724	0.013556	2.7170	0.36806	46.088	49.408	102.29	54.279	116.83	478.27	10.524	19.767	0.073087
577.29	9.1007	39.048	0.025609	24.419	24.652	59.353	54.923	105.89	886.50	0.24226	84.295	0.54626	0.013414	2.7453	0.36426	46.070	49.385	102.19	54.415	117.72	477.82	10.472	19.802	0.073492
577.92	9.1798	38.974	0.025658	24.481	24.717	59.461	54.912	106.26	883.00	0.24674	84.060	0.54529	0.013272	2.7739	0.36050	46.051	49.361	102.10	54.553	118.63	477.37	10.420	19.836	0.073902
578.54	9.2595	38.900	0.025707	24.543	24.781	59.568	54.903	106.63	879.50	0.25129	83.826	0.54431	0.013130	2.8029	0.35677	46.033	49.336	102.01	54.691	119.55	476.90	10.368	19.870	0.074318
579.16	9.3396	38.826	0.025756	24.605	24.845	59.676	54.893	107.01	875.97	0.25591	83.592	0.54332	0.012989	2.8322	0.35309	46.014	49.311	101.92	54.829	120.49	476.44	10.317	19.905	0.074740
579.79	9.4203	38.750	0.025806	24.667	24.910	59.784	54.884	107.40	872.44	0.26059	83.358	0.54233	0.012848	2.8618	0.34943	45.995	49.286	101.83	54.969	121.45	475.97	10.266	19.940	0.075167
580.41	9.5016	38.675	0.025856	24.729	24.974	59.892	54.876	107.80	868.89	0.26534	83.123	0.54134	0.012707	2.8917	0.34581	45.975	49.261	101.74	55.109	122.42	475.49	10.215	19.976	0.075602
581.03	9.5833	38.599	0.025907	24.791	25.039	60.000	54.868	108.20	865.33	0.27017	82.889	0.54034	0.012566	2.9220	0.34223	45.955	49.235	101.64	55.250	123.41	475.00	10.164	20.012	0.076042
581.66	9.6657	38.523	0.025959	24.854	25.105	60.108	54.860	108.61	861.76	0.27507	82.655	0.53934	0.012425	2.9527	0.33868	45.935	49.209	101.55	55.391	124.42	474.52	10.113	20.048	0.076489
582.28	9.7485	38.446	0.026011	24.916	25.170	60.217	54.853	109.02	858.17	0.28004	82.421	0.53834	0.012285	2.9837	0.33516	45.915	49.182	101.46	55.534	125.45	474.02	10.063	20.084	0.076943
582.90	9.8319	38.369	0.026063	24.979	25.235	60.326	54.846	109.45	854.56	0.28509	82.186	0.53732	0.012144	3.0150	0.33167	45.894	49.155	101.36	55.677	126.50	473.52	10.012	20.120	0.077403
583.53	9.9159	38.291	0.026116	25.042	25.301	60.434	54.840	109.88	850.94	0.29022	81.952	0.53631	0.012004	3.0467	0.32822	45.873	49.128	101.27	55.820	127.56	473.02	9.9622	20.157	0.077871
584.15	10.000	38.213	0.026169	25.105	25.367	60.543	54.835	110.32	847.31	0.29543	81.717	0.53529	0.011864	3.0788	0.32480	45.852	49.100	101.17	55.965	128.65	472.50	9.9122	20.195	0.078346
584.77	10.085	38.134	0.026223	25.169	25.433	60.653	54.829	110.77	843.67	0.30071	81.483	0.53426	0.011724	3.1113	0.32141	45.831	49.072	101.08	56.110	129.76	471.99	9.8623	20.232	0.078828
585.40	10.171	38.055	0.026278	25.232	25.499	60.762	54.825	111.23	840.00	0.30609	81.248	0.53323	0.011584	3.1441	0.31805	45.809	49.044	100.98	56.256	130.88	471.46	9.8126	20.270	0.079318
586.02	10.257	37.976	0.026333	25.296	25.566	60.872	54.821	111.70	836.33	0.31155	81.013	0.53220	0.011445	3.1774	0.31472	45.786	49.015	100.89	56.403	132.03	470.93	9.7630	20.308	0.079816
586.64	10.344	37.896	0.026388	25.360	25.633	60.982	54.817	112.17	832.64	0.31709	80.778	0.53116	0.011306	3.2110	0.31143	45.764	48.985	100.79	56.551	133.21	470.40	9.7136	20.347	0.080323
587.27	10.431	37.815	0.026444	25.424	25.699	61.092	54.814	112.66	828.93	0.32273	80.543	0.53012	0.011167	3.2451	0.30816	45.741	48.955	100.69	56.700	134.40	469.86	9.6644	20.386	0.080837
587.89	10.519	37.734	0.026501	25.488	25.767	61.202	54.812	113.15	825.21	0.32846	80.307	0.52907	0.011028	3.2796	0.30492	45.718	48.925	100.59	56.849	135.62	469.31	9.6153	20.425	0.081360
588.51	10.608	37.653	0.026558	25.552	25.834	61.313	54.810	113.66	821.47	0.33428	80.072	0.52802	0.010889	3.3144	0.30171	45.694	48.895	100.50	56.999	136.87	468.76	9.5663	20.465	0.081892
589.14	10.697	37.571	0.026616	25.617	25.902	61.423	54.809	114.18	817.72	0.34020	79.836	0.52696	0.010751	3.3497	0.29853	45.670	48.863	100.40	57.150	138.14	468.20	9.5174	20.505	0.082433
589.76	10.786	37.488	0.026675	25.682	25.969	61.534	54.808	114.70	813.95	0.34621	79.600	0.52589	0.010612	3.3855	0.29538	45.646	48.832	100.30	57.302	139.43	467.63	9.4687	20.545	0.082984
590.38	10.877	37.405	0.026734	25.747	26.037	61.646	54.808	115.24	810.16	0.35233	79.364	0.52483	0.010474	3.4217	0.29225	45.621	48.800	100.20	57.455	140.76	467.06	9.4201	20.586	0.083544
591.01	10.967	37.321	0.026794	25.812	26.106	61.757	54.809	115.79	806.36	0.35855	79.127	0.52375	0.010337	3.4583	0.28916	45.596	48.767	100.10	57.609	142.11	466.48	9.3717	20.628	0.084114
591.63	11.059	37.237	0.026855	25.877	26.174	61.869	54.810	116.35	802.55	0.36488	78.890	0.52267	0.010199	3.4954	0.28609	45.571	48.734	100.00	57.764	143.49	465.89	9.3233	20.669	0.084695
592.25	11.151	37.152	0.026916	25.943	26.243	61.981	54.812	116.92	798.71	0.37132	78.653	0.52159	0.010062	3.5330	0.28305	45.545	48.701	99.900	57.919	144.90	465.30	9.2751	20.711	0.085286
592.88	11.243	37.067	0.026978	26.009	26.312	62.093	54.815	117.51	794.86	0.37787	78.415	0.52050	0.0099247	3.5711	0.28003	45.518	48.667	99.799	58.076	146.34	464.70	9.2270	20.754	0.085887
593.50	11.336	36.981	0.027041	26.075	26.381	62.205	54.818	118.11	790.99	0.38453	78.177	0.51941	0.0097879	3.6096	0.27704	45.492	48.632	99.697	58.233	147.81	464.09	9.1790	20.797	0.086501
594.12	11.430	36.895	0.027104	26.141	26.451	62.318	54.822	118.72	787.11	0.39131	77.939	0.51831	0.0096512	3.6486	0.27408	45.465	48.598	99.595	58.392	149.32	463.48	9.1311	20.841	0.087125
594.74	11.525	36.808	0.027168	26.207	26.520	62.431	54.827	119.35	783.21	0.39822	77.700	0.51721	0.0095149	3.6882	0.27114	45.437	48.562	99.492	58.552	150.86	462.86	9.0833	20.885	0.087762
595.37	11.620	36.720	0.027233	26.274	26.590	62.544	54.833	119.99	779.29	0.40524	77.461	0.51610	0.0093788	3.7282	0.26822	45.409	48.526	99.388	58.712	152.44	462.23	9.0356	20.929	0.088411
595.99	11.715	36.632	0.027299	26.341	26.661	62.658	54.839	120.65	775.35	0.41240	77.221	0.51498	0.0092429	3.7688	0.26533	45.381	48.490	99.284	58.874	154.05	461.59	8.9880	20.974	0.089073
596.61	11.811	36.543	0.027365	26.408	26.731	62.772	54.847	121.32	771.39	0.41968	76.981	0.51386	0.0091073	3.8100	0.26247	45.352	48.453	99.180	59.036	155.70	460.95	8.9405	21.020	0.089748
597.24	11.908	36.453	0.027433	26.475	26.802	62.886	54.855	122.00	767.41	0.42710	76.741	0.51273	0.0089720	3.8517	0.25963	45.323	48.415	99.074	59.200	157.39	460.30	8.8930	21.066	0.090436
597.86	12.006	36.363	0.027501	26.543	26.873	63.001	54.864	122.71	763.42	0.43466	76.499	0.51160	0.0088370	3.8939	0.25681	45.294	48.377	98.968	59.365	159.12	459.64	8.8457	21.112	0.091139
598.48	12.104	36.272	0.027570	26.611	26.945	63.116	54.874	123.43	759.41	0.44236	76.258	0.51046	0.0087022	3.9367	0.25402	45.264	48.338	98.862	59.531	160.90	458.98	8.7984	21.159	0.091856
599.11	12.202	36.180	0.027639	26.679	27.016	63.231	54.884	124.17	755.37	0.45021	76.015	0.50932	0.0085677	3.9801	0.25125	45.233	48.299	98.755	59.698	162.71	458.30	8.7512	21.207	0.092588
599.73	12.302	36.088	0.027710	26.747	27.088	63.346	54.896	124.93	751.32	0.45821	75.773	0.50817	0.0084335	4.0242	0.24850	45.202	48.259	98.647	59.866	164.58	457.62	8.7041	21.255	0.093336
600.35	12.402	35.995	0.027782	26.816	27.161	63.462	54.909	125.71	747.25	0.46637	75.529	0.50702	0.0082996	4.0688	0.24577	45.170	48.218	98.538	60.035	166.49	456.93	8.6570	21.304	0.094100
600.98	12.502	35.901	0.027854	26.885	27.233	63.578	54.923	126.51	743.16	0.47468	75.285	0.50586	0.0081660	4.1140	0.24307	45.138	48.177	98.429	60.206	168.45	456.24	8.6100	21.354	0.094880
601.60	12.604	35.807	0.027928	26.954	27.306	63.695	54.937	127.33	739.04	0.48316	75.040	0.50469	0.0080327	4.1599	0.24039	45.106	48.136	98.319	60.378	170.46	455.53	8.5630	21.404	0.095678
602.22	12.705	35.711	0.028002	27.024	27.379	63.812	54.953	128.17	734.91	0.49181	74.794	0.50352	0.0078997	4.2065	0.23773	45.073	48.093	98.208	60.551	172.52	454.81	8.5161	21.455	0.096493
602.85	12.808	35.615	0.028078	27.093	27.453	63.929	54.970	129.03	730.75	0.50064	74.548	0.50234	0.0077670	4.2537	0.23509	45.039	48.050	98.096	60.725	174.64	454.09	8.4692	21.506	0.097327
603.47	12.911	35.519	0.028154	27.163	27.527	64.047	54.988	129.92	726.57	0.50965	74.301	0.50115	0.0076347	4.3017	0.23247	45.005	48.007	97.984	60.901	176.82	453.36	8.4224	21.558	0.098180
604.09	13.015	35.421	0.028232	27.234	27.601	64.165	55.007	130.84	722.36	0.51884	74.053	0.49996	0.0075026	4.3503	0.22987	44.971	47.962	97.871	61.078	179.06	452.62	8.3756	21.611	0.099053
604.72	13.119	35.322	0.028311	27.304	27.676	64.284	55.028	131.78	718.14	0.52823	73.804	0.49877	0.0073709	4.3996	0.22729	44.936	47.917	97.757	61.257	181.36	451.87	8.3289	21.665	0.099947
605.34	13.225	35.223	0.028390	27.375	27.751	64.403	55.050	132.75	713.89	0.53782	73.554	0.49756	0.0072396	4.4497	0.22473	44.900	47.872	97.642	61.437	183.73	451.11	8.2821	21.719	0.10086
605.96	13.331	35.123	0.028471	27.447	27.826	64.523	55.073	133.74	709.61	0.54761	73.304	0.49635	0.0071086	4.5006	0.22219	44.863	47.825	97.526	61.618	186.17	450.34	8.2354	21.775	0.10180
606.59	13.437	35.022	0.028554	27.518	27.902	64.643	55.097	134.77	705.31	0.55762	73.052	0.49514	0.0069780	4.5522	0.21967	44.826	47.778	97.410	61.801	188.68	449.56	8.1887	21.831	0.10276
607.21	13.544	34.920	0.028637	27.590	27.978	64.763	55.123	135.83	700.98	0.56785	72.799	0.49391	0.0068477	4.6046	0.21717	44.789	47.730	97.292	61.985	191.26	448.77	8.1420	21.888	0.10374
607.83	13.652	34.817	0.028722	27.663	28.055	64.884	55.150	136.92	696.63	0.57831	72.546	0.49269	0.0067178	4.6579	0.21469	44.751	47.682	97.174	62.171	193.92	447.97	8.0953	21.945	0.10475
608.46	13.761	34.713	0.028808	27.735	28.132	65.005	55.179	138.05	692.25	0.58901	72.291	0.49145	0.0065882	4.7120	0.21223	44.712	47.632	97.055	62.359	196.67	447.16	8.0486	22.004	0.10578
609.08	13.870	34.608	0.028895	27.808	28.209	65.127	55.210	139.21	687.84	0.59996	72.035	0.49021	0.0064591	4.7669	0.20978	44.673	47.582	96.934	62.548	199.50	446.34	8.0019	22.063	0.10685
609.70	13.980	34.502	0.028984	27.882	28.287	65.250	55.242	140.41	683.40	0.61116	71.778	0.48896	0.0063303	4.8227	0.20735	44.632	47.531	96.813	62.739	202.42	445.51	7.9552	22.124	0.10794
610.33	14.090	34.395	0.029074	27.956	28.365	65.373	55.276	141.66	678.93	0.62263	71.519	0.48770	0.0062019	4.8795	0.20494	44.592	47.479	96.691	62.931	205.43	444.67	7.9084	22.185	0.10905
610.95	14.202	34.287	0.029165	28.030	28.444	65.497	55.311	142.94	674.43	0.63437	71.260	0.48644	0.0060740	4.9372	0.20254	44.550	47.427	96.567	63.126	208.55	443.82	7.8617	22.248	0.11020
611.57	14.314	34.178	0.029258	28.104	28.523	65.621	55.349	144.28	669.89	0.64641	70.999	0.48517	0.0059465	4.9959	0.20017	44.508	47.373	96.443	63.322	211.77	442.96	7.8149	22.311	0.11138
612.20	14.427	34.068	0.029353	28.179	28.603	65.746	55.388	145.66	665.33	0.65874	70.736	0.48390	0.0058194	5.0555	0.19780	44.465	47.318	96.317	63.521	215.10	442.08	7.7680	22.376	0.11259
612.82	14.540	33.957	0.029449	28.255	28.683	65.871	55.430	147.09	660.73	0.67138	70.472	0.48262	0.0056927	5.1162	0.19546	44.421	47.263	96.190	63.721	218.55	441.19	7.7211	22.442	0.11384
613.44	14.654	33.844	0.029547	28.331	28.764	65.997	55.474	148.57	656.09	0.68435	70.207	0.48133	0.0055664	5.1779	0.19313	44.377	47.207	96.062	63.923	222.12	440.29	7.6742	22.508	0.11513
614.06	14.769	33.731	0.029647	28.407	28.845	66.124	55.520	150.11	651.42	0.69767	69.939	0.48003	0.0054407	5.2408	0.19081	44.331	47.149	95.933	64.127	225.82	439.38	7.6271	22.577	0.11645
614.69	14.885	33.616	0.029748	28.484	28.927	66.251	55.568	151.72	646.70	0.71133	69.671	0.47873	0.0053153	5.3047	0.18851	44.285	47.091	95.802	64.334	229.65	438.46	7.5800	22.646	0.11781
615.31	15.001	33.499	0.029851	28.561	29.009	66.380	55.619	153.38	641.95	0.72536	69.400	0.47743	0.0051905	5.3698	0.18623	44.238	47.032	95.670	64.543	233.63	437.52	7.5328	22.716	0.11921
615.93	15.118	33.382	0.029957	28.639	29.092	66.509	55.673	155.12	637.16	0.73979	69.127	0.47611	0.0050661	5.4361	0.18395	44.190	46.971	95.537	64.754	237.77	436.56	7.4856	22.788	0.12065
616.56	15.236	33.262	0.030064	28.717	29.175	66.638	55.729	156.93	632.32	0.75461	68.853	0.47479	0.0049423	5.5037	0.18170	44.142	46.910	95.402	64.968	242.07	435.60	7.4382	22.862	0.12214
617.18	15.355	33.142	0.030173	28.796	29.260	66.769	55.789	158.82	627.43	0.76986	68.576	0.47346	0.0048189	5.5725	0.17945	44.092	46.847	95.266	65.184	246.54	434.62	7.3907	22.937	0.12367
617.80	15.474	33.020	0.030285	28.876	29.344	66.900	55.851	160.80	622.50	0.78556	68.298	0.47213	0.0046961	5.6426	0.17722	44.041	46.784	95.128	65.403	251.19	433.62	7.3431	23.013	0.12526
618.43	15.594	32.896	0.030399	28.956	29.430	67.033	55.917	162.86	617.52	0.80172	68.017	0.47079	0.0045737	5.7141	0.17501	43.990	46.719	94.989	65.625	256.04	432.61	7.2954	23.091	0.12689
619.05	15.715	32.771	0.030515	29.036	29.516	67.166	55.987	165.02	612.49	0.81837	67.734	0.46944	0.0044520	5.7870	0.17280	43.937	46.653	94.848	65.849	261.10	431.58	7.2475	23.170	0.12858
619.67	15.837	32.644	0.030634	29.118	29.603	67.300	56.060	167.29	607.41	0.83554	67.448	0.46809	0.0043307	5.8614	0.17061	43.884	46.585	94.706	66.077	266.38	430.54	7.1995	23.251	0.13033
620.30	15.959	32.515	0.030755	29.199	29.690	67.435	56.137	169.67	602.27	0.85324	67.160	0.46674	0.0042101	5.9373	0.16843	43.829	46.517	94.562	66.308	271.90	429.48	7.1513	23.334	0.13214
620.92	16.082	32.384	0.030879	29.282	29.779	67.571	56.219	172.16	597.07	0.87151	66.869	0.46538	0.0040900	6.0149	0.16626	43.773	46.447	94.416	66.542	277.67	428.40	7.1029	23.419	0.13401
621.54	16.206	32.252	0.031006	29.365	29.868	67.709	56.305	174.79	591.82	0.89037	66.575	0.46401	0.0039705	6.0940	0.16410	43.716	46.375	94.268	66.779	283.72	427.31	7.0543	23.506	0.13594
622.17	16.331	32.118	0.031136	29.449	29.958	67.847	56.395	177.56	586.50	0.90987	66.278	0.46264	0.0038516	6.1749	0.16195	43.658	46.303	94.118	67.020	290.06	426.19	7.0055	23.595	0.13795
622.79	16.457	31.981	0.031269	29.534	30.049	67.987	56.492	180.48	581.11	0.93003	65.977	0.46127	0.0037334	6.2575	0.15981	43.598	46.228	93.966	67.265	296.71	425.06	6.9565	23.686	0.14003
623.41	16.583	31.842	0.031405	29.620	30.140	68.128	56.593	183.57	575.66	0.95088	65.674	0.45989	0.0036158	6.3420	0.15768	43.538	46.152	93.812	67.514	303.71	423.90	6.9073	23.779	0.14219
624.04	16.710	31.701	0.031545	29.706	30.233	68.270	56.701	186.83	570.14	0.97247	65.367	0.45851	0.0034988	6.4285	0.15556	43.475	46.075	93.656	67.767	311.08	422.73	6.8578	23.874	0.14444
624.66	16.838	31.558	0.031688	29.793	30.327	68.414	56.815	190.29	564.54	0.99483	65.056	0.45713	0.0033825	6.5169	0.15345	43.412	45.996	93.498	68.025	318.84	421.53	6.8080	23.972	0.14677
625.28	16.967	31.412	0.031835	29.882	30.422	68.559	56.936	193.97	558.87	1.0180	64.741	0.45575	0.0032670	6.6075	0.15134	43.347	45.915	93.337	68.287	327.05	420.31	6.7580	24.073	0.14920
625.91	17.097	31.263	0.031987	29.971	30.518	68.706	57.065	197.87	553.12	1.0421	64.422	0.45438	0.0031521	6.7003	0.14925	43.281	45.832	93.174	68.555	335.72	419.07	6.7076	24.176	0.15172
626.53	17.227	31.112	0.032142	30.061	30.615	68.854	57.202	202.03	547.28	1.0670	64.098	0.45300	0.0030380	6.7955	0.14716	43.213	45.748	93.008	68.828	344.91	417.80	6.6569	24.282	0.15436
627.15	17.358	30.957	0.032302	30.152	30.713	69.004	57.348	206.46	541.37	1.0929	63.770	0.45163	0.0029246	6.8931	0.14507	43.143	45.661	92.839	69.107	354.67	416.50	6.6058	24.391	0.15711
627.78	17.490	30.800	0.032468	30.245	30.813	69.156	57.504	211.20	535.36	1.1198	63.436	0.45026	0.0028120	6.9932	0.14300	43.071	45.572	92.667	69.391	365.05	415.18	6.5543	24.503	0.15998
628.40	17.623	30.639	0.032638	30.339	30.914	69.310	57.670	216.27	529.27	1.1478	63.098	0.44890	0.0027002	7.0961	0.14092	42.998	45.482	92.493	69.683	376.11	413.83	6.5024	24.619	0.16298
629.02	17.757	30.475	0.032814	30.433	31.016	69.466	57.847	221.71	523.08	1.1770	62.754	0.44756	0.0025892	7.2018	0.13885	42.923	45.389	92.315	69.981	387.93	412.44	6.4501	24.738	0.16612
629.65	17.892	30.307	0.032995	30.530	31.120	69.624	58.038	227.56	516.80	1.2073	62.403	0.44622	0.0024791	7.3105	0.13679	42.846	45.293	92.134	70.287	400.58	411.03	6.3972	24.861	0.16941
630.27	18.028	30.136	0.033183	30.627	31.226	69.785	58.241	233.85	510.43	1.2388	62.047	0.44491	0.0023698	7.4224	0.13473	42.766	45.195	91.949	70.601	414.17	409.58	6.3438	24.988	0.17287
630.89	18.164	29.960	0.033378	30.726	31.333	69.947	58.460	240.64	503.96	1.2717	61.684	0.44361	0.0022615	7.5377	0.13267	42.685	45.095	91.761	70.924	428.81	408.10	6.2899	25.120	0.17651
631.52	18.301	29.780	0.033579	30.827	31.442	70.113	58.695	247.97	497.40	1.3060	61.314	0.44234	0.0021541	7.6567	0.13061	42.601	44.991	91.568	71.257	444.61	406.57	6.2353	25.256	0.18034
632.14	18.440	29.596	0.033789	30.930	31.553	70.281	58.948	255.92	490.74	1.3417	60.936	0.44110	0.0020477	7.7794	0.12854	42.514	44.885	91.371	71.600	461.74	405.01	6.1801	25.397	0.18438
632.76	18.579	29.406	0.034006	31.034	31.665	70.452	59.220	264.55	483.99	1.3790	60.551	0.43989	0.0019423	7.9063	0.12648	42.425	44.775	91.169	71.955	480.37	403.39	6.1241	25.543	0.18865
633.39	18.719	29.212	0.034233	31.140	31.780	70.626	59.514	273.95	477.15	1.4178	60.157	0.43873	0.0018380	8.0376	0.12441	42.333	44.662	90.963	72.323	500.72	401.74	6.0674	25.696	0.19318
634.01	18.860	29.012	0.034469	31.248	31.898	70.803	59.831	284.20	470.22	1.4584	59.754	0.43762	0.0017347	8.1737	0.12234	42.237	44.545	90.751	72.705	523.03	400.03	6.0097	25.854	0.19799
634.63	19.002	28.806	0.034715	31.358	32.018	70.984	60.173	295.42	463.21	1.5006	59.342	0.43656	0.0016326	8.3149	0.12027	42.139	44.424	90.534	73.102	547.61	398.26	5.9511	26.020	0.20311
635.25	19.145	28.594	0.034972	31.470	32.140	71.169	60.542	307.75	456.13	1.5448	58.920	0.43558	0.0015317	8.4617	0.11818	42.037	44.299	90.310	73.517	574.84	396.43	5.8914	26.192	0.20857
635.88	19.289	28.376	0.035241	31.585	32.265	71.358	60.942	321.36	448.99	1.5908	58.487	0.43468	0.0014320	8.6146	0.11608	41.930	44.169	90.080	73.952	605.17	394.54	5.8305	26.374	0.21443
636.50	19.433	28.151	0.035523	31.703	32.393	71.551	61.373	336.44	441.79	1.6388	58.044	0.43388	0.0013336	8.7741	0.11397	41.820	44.035	89.842	74.409	639.19	392.57	5.7684	26.564	0.22073
637.12	19.579	27.918	0.035819	31.823	32.524	71.749	61.839	353.25	434.54	1.6890	57.589	0.43319	0.0012366	8.9409	0.11184	41.705	43.895	89.596	74.891	677.61	390.52	5.7047	26.764	0.22754
637.75	19.726	27.678	0.036130	31.946	32.659	71.952	62.342	372.16	427.26	1.7415	57.121	0.43265	0.0011410	9.1159	0.10970	41.584	43.748	89.340	75.402	721.36	388.37	5.6394	26.975	0.23493
638.37	19.874	27.428	0.036459	32.073	32.797	72.160	62.885	393.62	419.95	1.7964	56.639	0.43228	0.0010469	9.3000	0.10753	41.458	43.595	89.075	75.947	771.66	386.13	5.5722	27.200	0.24298
638.99	20.023	27.170	0.036806	32.203	32.940	72.375	63.472	418.29	412.60	1.8542	56.143	0.43213	0.00095443	9.4943	0.10533	41.325	43.434	88.798	76.531	830.09	383.76	5.5028	27.439	0.25183
639.62	20.173	26.900	0.037175	32.337	33.087	72.597	64.106	447.08	405.22	1.9150	55.631	0.43226	0.00086367	9.7002	0.10309	41.185	43.265	88.509	77.162	898.81	381.26	5.4310	27.694	0.26162
640.24	20.324	26.619	0.037568	32.476	33.240	72.827	64.793	481.33	397.77	1.9796	55.100	0.43276	0.00077472	9.9194	0.10081	41.036	43.085	88.204	77.848	980.81	378.59	5.3562	27.969	0.27255
640.86	20.476	26.323	0.037990	32.621	33.399	73.066	65.542	523.01	390.22	2.0486	54.548	0.43375	0.00068773	10.154	0.098482	40.878	42.894	87.883	78.602	1080.3	375.74	5.2782	28.267	0.28486
641.49	20.629	26.011	0.038446	32.772	33.565	73.316	66.366	575.16	382.48	2.1230	53.971	0.43540	0.00060285	10.407	0.096088	40.708	42.690	87.541	79.438	1203.5	372.65	5.1961	28.594	0.29892
642.11	20.783	25.677	0.038945	32.931	33.740	73.580	67.289	642.59	374.45	2.2043	53.364	0.43797	0.00052027	10.682	0.093615	40.524	42.470	87.175	80.379	1359.9	369.29	5.1092	28.954	0.31521
642.73	20.939	25.317	0.039499	33.101	33.928	73.862	68.347	733.29	365.94	2.2945	52.719	0.44184	0.00044020	10.984	0.091043	40.324	42.230	86.780	81.452	1564.6	365.57	5.0166	29.358	0.33445
643.36	21.096	24.922	0.040124	33.284	34.130	74.168	69.605	861.36	356.71	2.3962	52.027	0.44758	0.00036294	11.319	0.088345	40.103	41.966	86.348	82.702	1843.0	361.38	4.9167	29.819	0.35771
643.98	21.254	24.480	0.040850	33.486	34.354	74.505	71.179	1053.5	346.36	2.5134	51.273	0.45614	0.00028883	11.699	0.085480	39.855	41.672	85.869	84.192	2241.7	356.58	4.8078	30.357	0.38677
644.60	21.413	23.969	0.041721	33.713	34.607	74.887	73.283	1365.7	334.35	2.6517	50.437	0.46919	0.00021836	12.137	0.082391	39.572	41.336	85.326	86.026	2854.6	350.89	4.6872	31.006	0.42469
645.23	21.574	23.357	0.042814	33.980	34.904	75.337	76.329	1932.0	319.86	2.8194	49.490	0.49005	0.00015224	12.662	0.078979	39.238	40.942	84.695	88.389	3902.2	343.84	4.5508	31.827	0.47755
645.85	21.736	22.588	0.044272	34.307	35.269	75.893	81.160	3159.0	302.02	3.0270	48.396	0.52723	9.1540e-05	13.323	0.075059	38.825	40.457	83.925	91.674	6046.6	334.45	4.3918	32.950	0.56016
646.47	21.899	21.536	0.046434	34.745	35.762	76.644	89.847	7195.2	280.02	3.2867	47.132	0.61750	3.8351e-05	14.257	0.070139	38.260	39.796	82.884	97.125	12641.	319.80	4.1939	34.765	0.72825
647.10	22.064	17.874	0.055948	36.314	37.548	79.393	undefined	undefined	undefined	3.7410	94.111	undefined	undefined	17.874	0.055948	36.314	37.548	79.393	undefined	undefined	undefined	3.7410	94.111	undefined
